##TITLE=No Description
##DATA TYPE=INFRARED SPECTRUM
##XUNITS=1/CM
##YUNITS=%T
399.460154  	50.902889 
400.897061  	51.442376 
402.333968  	52.361686 
403.770875  	51.907601 
405.207782  	52.080535 
406.644689  	52.475127 
408.081596  	52.466948 
409.518503  	51.828151 
410.955410  	51.506703 
412.392317  	52.610985 
413.829224  	52.378111 
415.266131  	51.200277 
416.703038  	51.295313 
418.139945  	51.260124 
419.576852  	52.066144 
421.013759  	52.425707 
422.450666  	51.159121 
423.887574  	50.584081 
425.324481  	50.475222 
426.761388  	50.876245 
428.198295  	52.278341 
429.635202  	52.376155 
431.072109  	52.043037 
432.509016  	52.334002 
433.945923  	52.044865 
435.382830  	52.210718 
436.819737  	52.351695 
438.256644  	51.876989 
439.693551  	51.841512 
441.130458  	51.514209 
442.567365  	51.370669 
444.004272  	51.428957 
445.441179  	50.740593 
446.878086  	50.829031 
448.314993  	51.068772 
449.751900  	50.832139 
451.188807  	51.361250 
452.625714  	51.818716 
454.062621  	51.822851 
455.499528  	51.662020 
456.936435  	51.009635 
458.373342  	51.059301 
459.810249  	50.946185 
461.247156  	50.657252 
462.684063  	51.433705 
464.120970  	51.377083 
465.557877  	50.917164 
466.994784  	51.395815 
468.431691  	51.338867 
469.868598  	51.231386 
471.305505  	51.143411 
472.742413  	50.495285 
474.179320  	50.872593 
475.616227  	51.126496 
477.053134  	50.950785 
478.490041  	51.513964 
479.926948  	51.527704 
481.363855  	50.984208 
482.800762  	50.961096 
484.237669  	51.055277 
485.674576  	51.292167 
487.111483  	51.472930 
488.548390  	51.303906 
489.985297  	51.105633 
491.422204  	50.991433 
492.859111  	51.244053 
494.296018  	51.376749 
495.732925  	51.082551 
497.169832  	51.148576 
498.606739  	51.452053 
500.043646  	51.698626 
501.480553  	51.749121 
502.917460  	51.245391 
504.354367  	51.069057 
505.791274  	51.216706 
507.228181  	51.149324 
508.665088  	51.238414 
510.101995  	51.250661 
511.538902  	51.231116 
512.975809  	51.402326 
514.412716  	51.223829 
515.849623  	51.141361 
517.286530  	51.443895 
518.723437  	51.599957 
520.160344  	51.657292 
521.597251  	51.430775 
523.034159  	51.270114 
524.471066  	51.495872 
525.907973  	51.421841 
527.344880  	51.393085 
528.781787  	51.560773 
530.218694  	51.350407 
531.655601  	51.352306 
533.092508  	51.607366 
534.529415  	51.635200 
535.966322  	51.620984 
537.403229  	51.520325 
538.840136  	51.615340 
540.277043  	51.862765 
541.713950  	51.768413 
543.150857  	51.817130 
544.587764  	52.024541 
546.024671  	51.986921 
547.461578  	51.944219 
548.898485  	51.889229 
550.335392  	52.012786 
551.772299  	52.229581 
553.209206  	52.050007 
554.646113  	51.989178 
556.083020  	52.176973 
557.519927  	52.209107 
558.956834  	52.326298 
560.393741  	52.424904 
561.830648  	52.430813 
563.267555  	52.530770 
564.704462  	52.571004 
566.141369  	52.621855 
567.578276  	52.621870 
569.015183  	52.601090 
570.452090  	52.813450 
571.888997  	52.846956 
573.325905  	52.702744 
574.762812  	52.752060 
576.199719  	52.808233 
577.636626  	52.936980 
579.073533  	53.084859 
580.510440  	53.062274 
581.947347  	53.117098 
583.384254  	53.142534 
584.821161  	53.120881 
586.258068  	53.251091 
587.694975  	53.287553 
589.131882  	53.327458 
590.568789  	53.478777 
592.005696  	53.512767 
593.442603  	53.571400 
594.879510  	53.659984 
596.316417  	53.717795 
597.753324  	53.839472 
599.190231  	53.867725 
600.627138  	53.898201 
602.064045  	54.054028 
603.500952  	54.163067 
604.937859  	54.242036 
606.374766  	54.253823 
607.811673  	54.280336 
609.248580  	54.463013 
610.685487  	54.570323 
612.122394  	54.593308 
613.559301  	54.665136 
614.996208  	54.743372 
616.433115  	54.885448 
617.870022  	54.979211 
619.306929  	54.975624 
620.743836  	55.029456 
622.180744  	55.127482 
623.617651  	55.298118 
625.054558  	55.439717 
626.491465  	55.449636 
627.928372  	55.542925 
629.365279  	55.661647 
630.802186  	55.741933 
632.239093  	55.871444 
633.676000  	55.945379 
635.112907  	56.012973 
636.549814  	56.150065 
637.986721  	56.271486 
639.423628  	56.373052 
640.860535  	56.450177 
642.297442  	56.501880 
643.734349  	56.630537 
645.171256  	56.744124 
646.608163  	56.815637 
648.045070  	56.935204 
649.481977  	57.048989 
650.918884  	57.193680 
652.355791  	57.324544 
653.792698  	57.402842 
655.229605  	57.546281 
656.666512  	57.665486 
658.103419  	57.754380 
659.540326  	57.901357 
660.977233  	57.995194 
662.414140  	58.077588 
663.851047  	58.186192 
665.287954  	58.230812 
666.724861  	58.348406 
668.161768  	58.504858 
669.598675  	58.646684 
671.035582  	58.776396 
672.472490  	58.914626 
673.909397  	59.091334 
675.346304  	59.255136 
676.783211  	59.384465 
678.220118  	59.528864 
679.657025  	59.640503 
681.093932  	59.747921 
682.530839  	59.881453 
683.967746  	59.970454 
685.404653  	60.064580 
686.841560  	60.190188 
688.278467  	60.337156 
689.715374  	60.514740 
691.152281  	60.652256 
692.589188  	60.761744 
694.026095  	60.891342 
695.463002  	61.012050 
696.899909  	61.173283 
698.336816  	61.341100 
699.773723  	61.479341 
701.210630  	61.657743 
702.647537  	61.784447 
704.084444  	61.880944 
705.521351  	62.067933 
706.958258  	62.189431 
708.395165  	62.310724 
709.832072  	62.506735 
711.268979  	62.626583 
712.705886  	62.733387 
714.142793  	62.867485 
715.579700  	63.020583 
717.016607  	63.241768 
718.453514  	63.425957 
719.890421  	63.587678 
721.327328  	63.758117 
722.764236  	63.868768 
724.201143  	64.007510 
725.638050  	64.194291 
727.074957  	64.378012 
728.511864  	64.528549 
729.948771  	64.599407 
731.385678  	64.743141 
732.822585  	64.963391 
734.259492  	65.110374 
735.696399  	65.299470 
737.133306  	65.505538 
738.570213  	65.629930 
740.007120  	65.799061 
741.444027  	65.961758 
742.880934  	66.085175 
744.317841  	66.236386 
745.754748  	66.392232 
747.191655  	66.633174 
748.628562  	66.877883 
750.065469  	66.992195 
751.502376  	67.111134 
752.939283  	67.258622 
754.376190  	67.402634 
755.813097  	67.570463 
757.250004  	67.712672 
758.686911  	67.877340 
760.123818  	68.075239 
761.560725  	68.259098 
762.997632  	68.457535 
764.434539  	68.626330 
765.871446  	68.791674 
767.308353  	68.992691 
768.745260  	69.181535 
770.182167  	69.375381 
771.619075  	69.510290 
773.055982  	69.634038 
774.492889  	69.872490 
775.929796  	70.066293 
777.366703  	70.221487 
778.803610  	70.427039 
780.240517  	70.557268 
781.677424  	70.716061 
783.114331  	70.923054 
784.551238  	71.052934 
785.988145  	71.257545 
787.425052  	71.502889 
788.861959  	71.662647 
790.298866  	71.826576 
791.735773  	71.999310 
793.172680  	72.216950 
794.609587  	72.445003 
796.046494  	72.560526 
797.483401  	72.687132 
798.920308  	72.865882 
800.357215  	73.049912 
801.794122  	73.297106 
803.231029  	73.520161 
804.667936  	73.684751 
806.104843  	73.852375 
807.541750  	74.032836 
808.978657  	74.259275 
810.415564  	74.441042 
811.852471  	74.578900 
813.289378  	74.793384 
814.726285  	74.972383 
816.163192  	75.105470 
817.600099  	75.307424 
819.037006  	75.515975 
820.473913  	75.722435 
821.910821  	75.934637 
823.347728  	76.133528 
824.784635  	76.342107 
826.221542  	76.505410 
827.658449  	76.659327 
829.095356  	76.854871 
830.532263  	77.023358 
831.969170  	77.206449 
833.406077  	77.409489 
834.842984  	77.579694 
836.279891  	77.770770 
837.716798  	77.971133 
839.153705  	78.173172 
840.590612  	78.377805 
842.027519  	78.513651 
843.464426  	78.652471 
844.901333  	78.866999 
846.338240  	79.103522 
847.775147  	79.346186 
849.212054  	79.547317 
850.648961  	79.701290 
852.085868  	79.896023 
853.522775  	80.113699 
854.959682  	80.295529 
856.396589  	80.453158 
857.833496  	80.623715 
859.270403  	80.819098 
860.707310  	81.004780 
862.144217  	81.187646 
863.581124  	81.383630 
865.018031  	81.541976 
866.454938  	81.668169 
867.891845  	81.841221 
869.328752  	82.075700 
870.765660  	82.296158 
872.202567  	82.454773 
873.639474  	82.590074 
875.076381  	82.736389 
876.513288  	82.905110 
877.950195  	83.086953 
879.387102  	83.260653 
880.824009  	83.454128 
882.260916  	83.645583 
883.697823  	83.793515 
885.134730  	83.952331 
886.571637  	84.118014 
888.008544  	84.263907 
889.445451  	84.429094 
890.882358  	84.592096 
892.319265  	84.733224 
893.756172  	84.874835 
895.193079  	85.030718 
896.629986  	85.196810 
898.066893  	85.319104 
899.503800  	85.429964 
900.940707  	85.579608 
902.377614  	85.699625 
903.814521  	85.823200 
905.251428  	85.988867 
906.688335  	86.123431 
908.125242  	86.246098 
909.562149  	86.361864 
910.999056  	86.470863 
912.435963  	86.625074 
913.872870  	86.750320 
915.309777  	86.845601 
916.746684  	86.997769 
918.183591  	87.150301 
919.620498  	87.268043 
921.057406  	87.365338 
922.494313  	87.458396 
923.931220  	87.576207 
925.368127  	87.679098 
926.805034  	87.798405 
928.241941  	87.958544 
929.678848  	88.079542 
931.115755  	88.199325 
932.552662  	88.317368 
933.989569  	88.383328 
935.426476  	88.468930 
936.863383  	88.544309 
938.300290  	88.597541 
939.737197  	88.699739 
941.174104  	88.779861 
942.611011  	88.845346 
944.047918  	88.952145 
945.484825  	89.047959 
946.921732  	89.151690 
948.358639  	89.251915 
949.795546  	89.321796 
951.232453  	89.406948 
952.669360  	89.483917 
954.106267  	89.561535 
955.543174  	89.640778 
956.980081  	89.693428 
958.416988  	89.790437 
959.853895  	89.871539 
961.290802  	89.888455 
962.727709  	89.971092 
964.164616  	90.071293 
965.601523  	90.128860 
967.038430  	90.205715 
968.475337  	90.257233 
969.912244  	90.310330 
971.349152  	90.406237 
972.786059  	90.470493 
974.222966  	90.517306 
975.659873  	90.571853 
977.096780  	90.633104 
978.533687  	90.712214 
979.970594  	90.761241 
981.407501  	90.789249 
982.844408  	90.819226 
984.281315  	90.846064 
985.718222  	90.910303 
987.155129  	90.980090 
988.592036  	91.040635 
990.028943  	91.118040 
991.465850  	91.141474 
992.902757  	91.136590 
994.339664  	91.172660 
995.776571  	91.195377 
997.213478  	91.204407 
998.650385  	91.236160 
1000.087292  	91.282886 
1001.524199  	91.316640 
1002.961106  	91.314533 
1004.398013  	91.343412 
1005.834920  	91.400109 
1007.271827  	91.415343 
1008.708734  	91.457314 
1010.145641  	91.515191 
1011.582548  	91.523981 
1013.019455  	91.560775 
1014.456362  	91.618329 
1015.893269  	91.645567 
1017.330176  	91.674863 
1018.767083  	91.697605 
1020.203991  	91.718365 
1021.640898  	91.743821 
1023.077805  	91.755414 
1024.514712  	91.773503 
1025.951619  	91.787984 
1027.388526  	91.808166 
1028.825433  	91.841081 
1030.262340  	91.819802 
1031.699247  	91.784034 
1033.136154  	91.794968 
1034.573061  	91.798111 
1036.009968  	91.798125 
1037.446875  	91.823729 
1038.883782  	91.860262 
1040.320689  	91.904268 
1041.757596  	91.916786 
1043.194503  	91.902786 
1044.631410  	91.918950 
1046.068317  	91.944633 
1047.505224  	91.960020 
1048.942131  	91.994488 
1050.379038  	92.045522 
1051.815945  	92.086286 
1053.252852  	92.114665 
1054.689759  	92.147192 
1056.126666  	92.169432 
1057.563573  	92.162543 
1059.000480  	92.152939 
1060.437387  	92.177848 
1061.874294  	92.237134 
1063.311201  	92.285262 
1064.748108  	92.302632 
1066.185015  	92.310873 
1067.621922  	92.301136 
1069.058829  	92.293140 
1070.495737  	92.310482 
1071.932644  	92.311335 
1073.369551  	92.306163 
1074.806458  	92.323281 
1076.243365  	92.339638 
1077.680272  	92.361298 
1079.117179  	92.380871 
1080.554086  	92.382600 
1081.990993  	92.382499 
1083.427900  	92.376274 
1084.864807  	92.369343 
1086.301714  	92.364324 
1087.738621  	92.361824 
1089.175528  	92.372173 
1090.612435  	92.367631 
1092.049342  	92.381062 
1093.486249  	92.429374 
1094.923156  	92.422415 
1096.360063  	92.401550 
1097.796970  	92.433847 
1099.233877  	92.461871 
1100.670784  	92.493856 
1102.107691  	92.512024 
1103.544598  	92.480008 
1104.981505  	92.479584 
1106.418412  	92.516691 
1107.855319  	92.541582 
1109.292226  	92.562150 
1110.729133  	92.571920 
1112.166040  	92.576787 
1113.602947  	92.570550 
1115.039854  	92.560695 
1116.476761  	92.575126 
1117.913668  	92.577417 
1119.350575  	92.585305 
1120.787483  	92.606796 
1122.224390  	92.581703 
1123.661297  	92.578563 
1125.098204  	92.608156 
1126.535111  	92.588436 
1127.972018  	92.588269 
1129.408925  	92.622633 
1130.845832  	92.627790 
1132.282739  	92.625601 
1133.719646  	92.619942 
1135.156553  	92.625217 
1136.593460  	92.638664 
1138.030367  	92.627356 
1139.467274  	92.636126 
1140.904181  	92.645082 
1142.341088  	92.625190 
1143.777995  	92.632147 
1145.214902  	92.625507 
1146.651809  	92.592549 
1148.088716  	92.597184 
1149.525623  	92.615033 
1150.962530  	92.629191 
1152.399437  	92.630982 
1153.836344  	92.607223 
1155.273251  	92.594864 
1156.710158  	92.580685 
1158.147065  	92.564316 
1159.583972  	92.569072 
1161.020879  	92.561618 
1162.457786  	92.564787 
1163.894693  	92.581606 
1165.331600  	92.566392 
1166.768507  	92.562570 
1168.205414  	92.575761 
1169.642322  	92.569335 
1171.079229  	92.562461 
1172.516136  	92.549613 
1173.953043  	92.537024 
1175.389950  	92.536751 
1176.826857  	92.526945 
1178.263764  	92.520551 
1179.700671  	92.517348 
1181.137578  	92.511683 
1182.574485  	92.523689 
1184.011392  	92.537146 
1185.448299  	92.543598 
1186.885206  	92.535600 
1188.322113  	92.505604 
1189.759020  	92.494304 
1191.195927  	92.496759 
1192.632834  	92.484968 
1194.069741  	92.473287 
1195.506648  	92.467874 
1196.943555  	92.480842 
1198.380462  	92.486028 
1199.817369  	92.455681 
1201.254276  	92.446738 
1202.691183  	92.457795 
1204.128090  	92.455549 
1205.564997  	92.467419 
1207.001904  	92.472256 
1208.438811  	92.462399 
1209.875718  	92.462633 
1211.312625  	92.446926 
1212.749532  	92.423850 
1214.186439  	92.412601 
1215.623346  	92.408346 
1217.060253  	92.425523 
1218.497160  	92.436392 
1219.934068  	92.425538 
1221.370975  	92.424557 
1222.807882  	92.429032 
1224.244789  	92.432616 
1225.681696  	92.426133 
1227.118603  	92.400229 
1228.555510  	92.392733 
1229.992417  	92.412192 
1231.429324  	92.421362 
1232.866231  	92.401681 
1234.303138  	92.371706 
1235.740045  	92.363384 
1237.176952  	92.367070 
1238.613859  	92.375236 
1240.050766  	92.391976 
1241.487673  	92.376689 
1242.924580  	92.338401 
1244.361487  	92.323196 
1245.798394  	92.317100 
1247.235301  	92.308600 
1248.672208  	92.300613 
1250.109115  	92.292265 
1251.546022  	92.283080 
1252.982929  	92.259706 
1254.419836  	92.246214 
1255.856743  	92.248668 
1257.293650  	92.236945 
1258.730557  	92.235242 
1260.167464  	92.233764 
1261.604371  	92.209191 
1263.041278  	92.207549 
1264.478185  	92.211459 
1265.915092  	92.191347 
1267.351999  	92.178871 
1268.788907  	92.173454 
1270.225814  	92.175367 
1271.662721  	92.174828 
1273.099628  	92.151726 
1274.536535  	92.141787 
1275.973442  	92.142329 
1277.410349  	92.129450 
1278.847256  	92.116862 
1280.284163  	92.095424 
1281.721070  	92.080875 
1283.157977  	92.095394 
1284.594884  	92.112065 
1286.031791  	92.122298 
1287.468698  	92.125544 
1288.905605  	92.125666 
1290.342512  	92.132822 
1291.779419  	92.139805 
1293.216326  	92.158901 
1294.653233  	92.171418 
1296.090140  	92.155118 
1297.527047  	92.149866 
1298.963954  	92.153286 
1300.400861  	92.158037 
1301.837768  	92.183408 
1303.274675  	92.198175 
1304.711582  	92.203992 
1306.148489  	92.203786 
1307.585396  	92.205979 
1309.022303  	92.220024 
1310.459210  	92.221873 
1311.896117  	92.211559 
1313.333024  	92.218267 
1314.769931  	92.217634 
1316.206838  	92.212282 
1317.643745  	92.208828 
1319.080653  	92.214240 
1320.517560  	92.223283 
1321.954467  	92.214833 
1323.391374  	92.210082 
1324.828281  	92.217190 
1326.265188  	92.208085 
1327.702095  	92.193658 
1329.139002  	92.206308 
1330.575909  	92.209871 
1332.012816  	92.197577 
1333.449723  	92.182049 
1334.886630  	92.158462 
1336.323537  	92.147438 
1337.760444  	92.144451 
1339.197351  	92.105773 
1340.634258  	92.075149 
1342.071165  	92.062094 
1343.508072  	92.077919 
1344.944979  	92.087379 
1346.381886  	92.056183 
1347.818793  	92.019109 
1349.255700  	91.985592 
1350.692607  	91.967236 
1352.129514  	91.973310 
1353.566421  	91.945042 
1355.003328  	91.903658 
1356.440235  	91.883469 
1357.877142  	91.860006 
1359.314049  	91.844406 
1360.750956  	91.831120 
1362.187863  	91.781359 
1363.624770  	91.726613 
1365.061677  	91.701232 
1366.498584  	91.694981 
1367.935491  	91.675157 
1369.372399  	91.623931 
1370.809306  	91.577027 
1372.246213  	91.554298 
1373.683120  	91.506581 
1375.120027  	91.449966 
1376.556934  	91.416461 
1377.993841  	91.388728 
1379.430748  	91.353409 
1380.867655  	91.311965 
1382.304562  	91.284567 
1383.741469  	91.272378 
1385.178376  	91.270095 
1386.615283  	91.252618 
1388.052190  	91.210575 
1389.489097  	91.187782 
1390.926004  	91.201146 
1392.362911  	91.226827 
1393.799818  	91.249590 
1395.236725  	91.255566 
1396.673632  	91.250580 
1398.110539  	91.275791 
1399.547446  	91.307834 
1400.984353  	91.340861 
1402.421260  	91.382086 
1403.858167  	91.394049 
1405.295074  	91.376681 
1406.731981  	91.398317 
1408.168888  	91.439790 
1409.605795  	91.499129 
1411.042702  	91.518331 
1412.479609  	91.515558 
1413.916516  	91.578754 
1415.353423  	91.634466 
1416.790330  	91.669440 
1418.227238  	91.716670 
1419.664145  	91.678140 
1421.101052  	91.692557 
1422.537959  	91.771009 
1423.974866  	91.780586 
1425.411773  	91.787766 
1426.848680  	91.841967 
1428.285587  	91.871133 
1429.722494  	91.881263 
1431.159401  	91.862172 
1432.596308  	91.867025 
1434.033215  	91.899613 
1435.470122  	91.903304 
1436.907029  	91.842084 
1438.343936  	91.860417 
1439.780843  	91.922460 
1441.217750  	91.946235 
1442.654657  	91.935930 
1444.091564  	91.931573 
1445.528471  	91.939377 
1446.965378  	91.947017 
1448.402285  	91.941463 
1449.839192  	91.900988 
1451.276099  	91.882371 
1452.713006  	91.886861 
1454.149913  	91.913638 
1455.586820  	91.959608 
1457.023727  	91.955334 
1458.460634  	91.839038 
1459.897541  	91.820540 
1461.334448  	91.839584 
1462.771355  	91.893545 
1464.208262  	91.904635 
1465.645169  	91.781735 
1467.082076  	91.740662 
1468.518984  	91.792176 
1469.955891  	91.837765 
1471.392798  	91.872902 
1472.829705  	91.801224 
1474.266612  	91.686877 
1475.703519  	91.707127 
1477.140426  	91.753002 
1478.577333  	91.764305 
1480.014240  	91.760347 
1481.451147  	91.702676 
1482.888054  	91.656689 
1484.324961  	91.647166 
1485.761868  	91.650134 
1487.198775  	91.670950 
1488.635682  	91.665069 
1490.072589  	91.584140 
1491.509496  	91.512130 
1492.946403  	91.529439 
1494.383310  	91.573531 
1495.820217  	91.570597 
1497.257124  	91.530878 
1498.694031  	91.469403 
1500.130938  	91.367814 
1501.567845  	91.381308 
1503.004752  	91.452560 
1504.441659  	91.421179 
1505.878566  	91.370144 
1507.315473  	91.238500 
1508.752380  	91.122680 
1510.189287  	91.182503 
1511.626194  	91.199869 
1513.063101  	91.127173 
1514.500008  	91.084338 
1515.936915  	91.022446 
1517.373822  	90.951632 
1518.810730  	90.918839 
1520.247637  	90.895134 
1521.684544  	90.821018 
1523.121451  	90.723310 
1524.558358  	90.685257 
1525.995265  	90.654170 
1527.432172  	90.584927 
1528.869079  	90.544813 
1530.305986  	90.508594 
1531.742893  	90.453570 
1533.179800  	90.385473 
1534.616707  	90.165709 
1536.053614  	90.080599 
1537.490521  	90.099792 
1538.927428  	89.991982 
1540.364335  	89.807404 
1541.801242  	89.712393 
1543.238149  	89.576270 
1544.675056  	89.512708 
1546.111963  	89.415506 
1547.548870  	89.292269 
1548.985777  	89.202231 
1550.422684  	89.023901 
1551.859591  	88.875304 
1553.296498  	88.770913 
1554.733405  	88.602248 
1556.170312  	88.511828 
1557.607219  	88.470726 
1559.044126  	88.247274 
1560.481033  	87.980764 
1561.917940  	87.896172 
1563.354847  	87.797320 
1564.791754  	87.745346 
1566.228661  	87.618397 
1567.665569  	87.521524 
1569.102476  	87.363250 
1570.539383  	87.085942 
1571.976290  	87.028645 
1573.413197  	86.997375 
1574.850104  	86.906288 
1576.287011  	86.748505 
1577.723918  	86.482215 
1579.160825  	86.417455 
1580.597732  	86.364646 
1582.034639  	86.185665 
1583.471546  	86.034530 
1584.908453  	85.880486 
1586.345360  	85.680426 
1587.782267  	85.561058 
1589.219174  	85.373934 
1590.656081  	85.191640 
1592.092988  	85.030212 
1593.529895  	84.792545 
1594.966802  	84.576053 
1596.403709  	84.378388 
1597.840616  	84.154763 
1599.277523  	83.956142 
1600.714430  	83.628192 
1602.151337  	83.279582 
1603.588244  	82.997311 
1605.025151  	82.676388 
1606.462058  	82.368406 
1607.898965  	82.046617 
1609.335872  	81.666402 
1610.772779  	81.342650 
1612.209686  	80.973664 
1613.646593  	80.625962 
1615.083500  	80.449497 
1616.520407  	80.000906 
1617.957315  	79.468543 
1619.394222  	79.179695 
1620.831129  	78.865424 
1622.268036  	78.670277 
1623.704943  	78.311051 
1625.141850  	77.861633 
1626.578757  	77.736223 
1628.015664  	77.551211 
1629.452571  	77.324524 
1630.889478  	77.189776 
1632.326385  	76.997978 
1633.763292  	76.993052 
1635.200199  	77.087245 
1636.637106  	76.903747 
1638.074013  	76.928964 
1639.510920  	76.957159 
1640.947827  	76.976451 
1642.384734  	77.167673 
1643.821641  	77.324641 
1645.258548  	77.471528 
1646.695455  	77.606426 
1648.132362  	77.679670 
1649.569269  	78.020624 
1651.006176  	78.365176 
1652.443083  	78.760906 
1653.879990  	79.089129 
1655.316897  	79.001109 
1656.753804  	79.359333 
1658.190711  	79.852018 
1659.627618  	80.164037 
1661.064525  	80.451116 
1662.501432  	80.690900 
1663.938339  	80.919501 
1665.375246  	81.424500 
1666.812154  	81.854850 
1668.249061  	82.179352 
1669.685968  	82.513841 
1671.122875  	82.700468 
1672.559782  	83.125434 
1673.996689  	83.672842 
1675.433596  	84.022033 
1676.870503  	84.314305 
1678.307410  	84.586112 
1679.744317  	84.900744 
1681.181224  	85.341539 
1682.618131  	85.715669 
1684.055038  	86.010137 
1685.491945  	86.368945 
1686.928852  	86.691125 
1688.365759  	87.053531 
1689.802666  	87.418127 
1691.239573  	87.733954 
1692.676480  	88.054238 
1694.113387  	88.292225 
1695.550294  	88.565535 
1696.987201  	88.886782 
1698.424108  	89.091361 
1699.861015  	89.351582 
1701.297922  	89.577859 
1702.734829  	89.782747 
1704.171736  	90.097903 
1705.608643  	90.379935 
1707.045550  	90.565831 
1708.482457  	90.810360 
1709.919364  	91.007495 
1711.356271  	91.236363 
1712.793178  	91.486302 
1714.230085  	91.678504 
1715.666992  	91.935388 
1717.103900  	92.159226 
1718.540807  	92.234332 
1719.977714  	92.485386 
1721.414621  	92.716440 
1722.851528  	92.914833 
1724.288435  	93.139177 
1725.725342  	93.308379 
1727.162249  	93.458524 
1728.599156  	93.580209 
1730.036063  	93.712478 
1731.472970  	93.863385 
1732.909877  	93.982295 
1734.346784  	94.034557 
1735.783691  	94.054005 
1737.220598  	94.180588 
1738.657505  	94.375073 
1740.094412  	94.505931 
1741.531319  	94.535144 
1742.968226  	94.611852 
1744.405133  	94.675000 
1745.842040  	94.791232 
1747.278947  	94.925260 
1748.715854  	94.968272 
1750.152761  	95.039581 
1751.589668  	95.097471 
1753.026575  	95.159797 
1754.463482  	95.345204 
1755.900389  	95.422940 
1757.337296  	95.379080 
1758.774203  	95.443682 
1760.211110  	95.523114 
1761.648017  	95.570653 
1763.084924  	95.630295 
1764.521831  	95.652902 
1765.958738  	95.716888 
1767.395646  	95.751786 
1768.832553  	95.776635 
1770.269460  	95.857860 
1771.706367  	95.882190 
1773.143274  	95.872995 
1774.580181  	95.924856 
1776.017088  	95.949448 
1777.453995  	96.002188 
1778.890902  	96.053918 
1780.327809  	96.041288 
1781.764716  	96.066872 
1783.201623  	96.133407 
1784.638530  	96.170260 
1786.075437  	96.161306 
1787.512344  	96.178716 
1788.949251  	96.285964 
1790.386158  	96.318232 
1791.823065  	96.256572 
1793.259972  	96.261677 
1794.696879  	96.261473 
1796.133786  	96.346258 
1797.570693  	96.461981 
1799.007600  	96.424012 
1800.444507  	96.412572 
1801.881414  	96.408332 
1803.318321  	96.358059 
1804.755228  	96.451166 
1806.192135  	96.535396 
1807.629042  	96.537942 
1809.065949  	96.556938 
1810.502856  	96.565606 
1811.939763  	96.580365 
1813.376670  	96.613532 
1814.813577  	96.649761 
1816.250485  	96.677837 
1817.687392  	96.647736 
1819.124299  	96.631319 
1820.561206  	96.668778 
1821.998113  	96.667433 
1823.435020  	96.673280 
1824.871927  	96.675944 
1826.308834  	96.640936 
1827.745741  	96.681279 
1829.182648  	96.697862 
1830.619555  	96.648889 
1832.056462  	96.649080 
1833.493369  	96.664374 
1834.930276  	96.717624 
1836.367183  	96.767557 
1837.804090  	96.772450 
1839.240997  	96.794062 
1840.677904  	96.805236 
1842.114811  	96.840221 
1843.551718  	96.892262 
1844.988625  	96.823709 
1846.425532  	96.799115 
1847.862439  	96.847953 
1849.299346  	96.856146 
1850.736253  	96.912809 
1852.173160  	96.937314 
1853.610067  	96.862831 
1855.046974  	96.884935 
1856.483881  	96.900947 
1857.920788  	96.896304 
1859.357695  	96.929842 
1860.794602  	96.887763 
1862.231509  	96.879135 
1863.668416  	96.911756 
1865.105323  	96.908118 
1866.542231  	96.914485 
1867.979138  	96.858111 
1869.416045  	96.813809 
1870.852952  	96.862629 
1872.289859  	96.864883 
1873.726766  	96.931054 
1875.163673  	96.964086 
1876.600580  	96.882551 
1878.037487  	96.893858 
1879.474394  	96.902908 
1880.911301  	96.906270 
1882.348208  	96.921319 
1883.785115  	96.918315 
1885.222022  	96.919391 
1886.658929  	96.888090 
1888.095836  	96.869988 
1889.532743  	96.939764 
1890.969650  	96.914782 
1892.406557  	96.868165 
1893.843464  	96.953140 
1895.280371  	96.976922 
1896.717278  	96.969272 
1898.154185  	96.978350 
1899.591092  	96.931694 
1901.027999  	96.954823 
1902.464906  	96.954482 
1903.901813  	96.926716 
1905.338720  	96.936726 
1906.775627  	96.897777 
1908.212534  	96.895947 
1909.649441  	96.919044 
1911.086348  	96.855547 
1912.523255  	96.868482 
1913.960162  	96.987054 
1915.397069  	96.996061 
1916.833977  	97.015239 
1918.270884  	96.960000 
1919.707791  	96.930170 
1921.144698  	97.002709 
1922.581605  	96.959324 
1924.018512  	96.863309 
1925.455419  	96.802869 
1926.892326  	96.837898 
1928.329233  	96.898440 
1929.766140  	96.893448 
1931.203047  	96.873130 
1932.639954  	96.885916 
1934.076861  	96.864049 
1935.513768  	96.921326 
1936.950675  	96.920335 
1938.387582  	96.885401 
1939.824489  	96.960279 
1941.261396  	96.956786 
1942.698303  	96.932737 
1944.135210  	96.987671 
1945.572117  	96.924459 
1947.009024  	96.899054 
1948.445931  	96.925917 
1949.882838  	96.859792 
1951.319745  	96.919674 
1952.756652  	96.812086 
1954.193559  	96.716080 
1955.630466  	96.985204 
1957.067373  	97.095062 
1958.504280  	97.128652 
1959.941187  	97.098284 
1961.378094  	96.822672 
1962.815001  	96.866266 
1964.251908  	96.972944 
1965.688816  	96.888360 
1967.125723  	96.844064 
1968.562630  	96.598084 
1969.999537  	96.628304 
1971.436444  	96.822012 
1972.873351  	96.733883 
1974.310258  	96.659074 
1975.747165  	96.564409 
1977.184072  	96.340062 
1978.620979  	96.330037 
1980.057886  	96.350766 
1981.494793  	96.245547 
1982.931700  	96.212405 
1984.368607  	96.230649 
1985.805514  	96.281091 
1987.242421  	96.273431 
1988.679328  	96.429745 
1990.116235  	96.759513 
1991.553142  	96.717967 
1992.990049  	96.582934 
1994.426956  	96.704860 
1995.863863  	96.781974 
1997.300770  	96.870883 
1998.737677  	96.853845 
2000.174584  	96.675266 
2001.611491  	96.506454 
2003.048398  	96.431554 
2004.485305  	96.646516 
2005.922212  	96.732348 
2007.359119  	96.565604 
2008.796026  	96.740894 
2010.232933  	96.681702 
2011.669840  	96.518905 
2013.106747  	96.731304 
2014.543654  	96.455193 
2015.980562  	96.175062 
2017.417469  	96.428203 
2018.854376  	96.387981 
2020.291283  	96.358193 
2021.728190  	96.385722 
2023.165097  	96.108071 
2024.602004  	96.028723 
2026.038911  	96.046555 
2027.475818  	96.183685 
2028.912725  	96.510615 
2030.349632  	96.526635 
2031.786539  	96.596204 
2033.223446  	96.498538 
2034.660353  	95.999485 
2036.097260  	95.959068 
2037.534167  	96.138791 
2038.971074  	96.133477 
2040.407981  	96.063316 
2041.844888  	95.855779 
2043.281795  	96.002871 
2044.718702  	96.254127 
2046.155609  	96.138502 
2047.592516  	96.236728 
2049.029423  	96.161968 
2050.466330  	95.725902 
2051.903237  	95.776464 
2053.340144  	96.029100 
2054.777051  	96.008113 
2056.213958  	95.926113 
2057.650865  	95.863194 
2059.087772  	95.828290 
2060.524679  	95.799695 
2061.961586  	95.785171 
2063.398493  	95.827525 
2064.835401  	95.814193 
2066.272308  	95.828268 
2067.709215  	95.856665 
2069.146122  	95.772758 
2070.583029  	95.725410 
2072.019936  	95.653034 
2073.456843  	95.580751 
2074.893750  	95.693293 
2076.330657  	95.778258 
2077.767564  	95.793835 
2079.204471  	95.820433 
2080.641378  	95.754629 
2082.078285  	95.761767 
2083.515192  	95.834987 
2084.952099  	95.800265 
2086.389006  	95.745893 
2087.825913  	95.680519 
2089.262820  	95.635340 
2090.699727  	95.638619 
2092.136634  	95.614825 
2093.573541  	95.643899 
2095.010448  	95.643071 
2096.447355  	95.544926 
2097.884262  	95.561967 
2099.321169  	95.606204 
2100.758076  	95.592882 
2102.194983  	95.625098 
2103.631890  	95.587269 
2105.068797  	95.468559 
2106.505704  	95.393384 
2107.942611  	95.467227 
2109.379518  	95.663104 
2110.816425  	95.713884 
2112.253332  	95.669292 
2113.690239  	95.684791 
2115.127147  	95.607078 
2116.564054  	95.559334 
2118.000961  	95.623023 
2119.437868  	95.621760 
2120.874775  	95.636786 
2122.311682  	95.665212 
2123.748589  	95.667927 
2125.185496  	95.752899 
2126.622403  	95.746202 
2128.059310  	95.600257 
2129.496217  	95.557597 
2130.933124  	95.714710 
2132.370031  	95.953486 
2133.806938  	95.931589 
2135.243845  	95.693932 
2136.680752  	95.658579 
2138.117659  	95.726172 
2139.554566  	95.811646 
2140.991473  	95.891037 
2142.428380  	95.726271 
2143.865287  	95.687563 
2145.302194  	95.983010 
2146.739101  	96.088340 
2148.176008  	95.925950 
2149.612915  	95.846036 
2151.049822  	95.975284 
2152.486729  	96.069106 
2153.923636  	96.049364 
2155.360543  	96.284001 
2156.797450  	96.499846 
2158.234357  	96.221331 
2159.671264  	95.655002 
2161.108171  	95.186746 
2162.545078  	95.322494 
2163.981985  	95.734896 
2165.418893  	95.736829 
2166.855800  	95.667937 
2168.292707  	95.602972 
2169.729614  	95.474870 
2171.166521  	95.735392 
2172.603428  	96.115522 
2174.040335  	96.150666 
2175.477242  	95.973472 
2176.914149  	95.809663 
2178.351056  	95.962875 
2179.787963  	96.150587 
2181.224870  	96.014079 
2182.661777  	95.904652 
2184.098684  	95.819263 
2185.535591  	95.725258 
2186.972498  	95.814621 
2188.409405  	95.860147 
2189.846312  	95.869421 
2191.283219  	95.896188 
2192.720126  	95.741088 
2194.157033  	95.606170 
2195.593940  	95.690553 
2197.030847  	95.867841 
2198.467754  	95.934906 
2199.904661  	95.859327 
2201.341568  	95.973566 
2202.778475  	96.173817 
2204.215382  	96.094809 
2205.652289  	95.984982 
2207.089196  	95.967606 
2208.526103  	95.932159 
2209.963010  	95.908446 
2211.399917  	95.870011 
2212.836824  	95.984826 
2214.273732  	96.221789 
2215.710639  	96.230277 
2217.147546  	96.136387 
2218.584453  	96.107451 
2220.021360  	96.101142 
2221.458267  	96.190971 
2222.895174  	96.255678 
2224.332081  	96.216605 
2225.768988  	96.206815 
2227.205895  	96.196893 
2228.642802  	96.125793 
2230.079709  	96.064980 
2231.516616  	96.123794 
2232.953523  	96.245190 
2234.390430  	96.298311 
2235.827337  	96.347032 
2237.264244  	96.312653 
2238.701151  	96.177410 
2240.138058  	96.273411 
2241.574965  	96.447836 
2243.011872  	96.337127 
2244.448779  	96.180294 
2245.885686  	96.136469 
2247.322593  	96.113957 
2248.759500  	96.210200 
2250.196407  	96.364915 
2251.633314  	96.389655 
2253.070221  	96.393205 
2254.507128  	96.403189 
2255.944035  	96.361265 
2257.380942  	96.319446 
2258.817849  	96.372169 
2260.254756  	96.421309 
2261.691663  	96.472189 
2263.128570  	96.549411 
2264.565478  	96.522730 
2266.002385  	96.459148 
2267.439292  	96.510393 
2268.876199  	96.546759 
2270.313106  	96.527624 
2271.750013  	96.516758 
2273.186920  	96.512485 
2274.623827  	96.484564 
2276.060734  	96.448184 
2277.497641  	96.470011 
2278.934548  	96.490140 
2280.371455  	96.455873 
2281.808362  	96.455224 
2283.245269  	96.477775 
2284.682176  	96.443434 
2286.119083  	96.456106 
2287.555990  	96.494388 
2288.992897  	96.499177 
2290.429804  	96.517248 
2291.866711  	96.536531 
2293.303618  	96.544198 
2294.740525  	96.553244 
2296.177432  	96.540991 
2297.614339  	96.522560 
2299.051246  	96.522043 
2300.488153  	96.512288 
2301.925060  	96.563960 
2303.361967  	96.577048 
2304.798874  	96.538169 
2306.235781  	96.545230 
2307.672688  	96.518075 
2309.109595  	96.530542 
2310.546502  	96.619733 
2311.983409  	96.612095 
2313.420317  	96.596541 
2314.857224  	96.637117 
2316.294131  	96.622112 
2317.731038  	96.595119 
2319.167945  	96.540320 
2320.604852  	96.453946 
2322.041759  	96.419883 
2323.478666  	96.389858 
2324.915573  	96.438583 
2326.352480  	96.637381 
2327.789387  	96.793041 
2329.226294  	96.803545 
2330.663201  	96.781270 
2332.100108  	96.793149 
2333.537015  	96.804152 
2334.973922  	96.824173 
2336.410829  	96.872944 
2337.847736  	96.873035 
2339.284643  	96.851492 
2340.721550  	96.897873 
2342.158457  	96.913471 
2343.595364  	96.878041 
2345.032271  	96.857140 
2346.469178  	96.828624 
2347.906085  	96.857460 
2349.342992  	96.935550 
2350.779899  	96.973844 
2352.216806  	97.019015 
2353.653713  	97.044170 
2355.090620  	97.002904 
2356.527527  	96.979305 
2357.964434  	97.010945 
2359.401341  	97.045975 
2360.838248  	97.041521 
2362.275155  	97.030601 
2363.712063  	97.083663 
2365.148970  	97.111029 
2366.585877  	97.097511 
2368.022784  	97.097039 
2369.459691  	97.076923 
2370.896598  	97.063766 
2372.333505  	97.102379 
2373.770412  	97.132253 
2375.207319  	97.147235 
2376.644226  	97.155541 
2378.081133  	97.176222 
2379.518040  	97.214420 
2380.954947  	97.225636 
2382.391854  	97.224843 
2383.828761  	97.244019 
2385.265668  	97.255212 
2386.702575  	97.262553 
2388.139482  	97.293200 
2389.576389  	97.322767 
2391.013296  	97.345648 
2392.450203  	97.354842 
2393.887110  	97.392970 
2395.324017  	97.421257 
2396.760924  	97.375199 
2398.197831  	97.360320 
2399.634738  	97.376031 
2401.071645  	97.343269 
2402.508552  	97.332973 
2403.945459  	97.338670 
2405.382366  	97.324727 
2406.819273  	97.328258 
2408.256180  	97.304097 
2409.693087  	97.271096 
2411.129994  	97.305213 
2412.566901  	97.353300 
2414.003809  	97.359170 
2415.440716  	97.350083 
2416.877623  	97.370107 
2418.314530  	97.401542 
2419.751437  	97.396561 
2421.188344  	97.377330 
2422.625251  	97.366601 
2424.062158  	97.373808 
2425.499065  	97.398040 
2426.935972  	97.399133 
2428.372879  	97.402208 
2429.809786  	97.403176 
2431.246693  	97.383284 
2432.683600  	97.437803 
2434.120507  	97.491908 
2435.557414  	97.427269 
2436.994321  	97.380747 
2438.431228  	97.398145 
2439.868135  	97.423889 
2441.305042  	97.468478 
2442.741949  	97.478404 
2444.178856  	97.483076 
2445.615763  	97.517531 
2447.052670  	97.488213 
2448.489577  	97.436258 
2449.926484  	97.430271 
2451.363391  	97.431556 
2452.800298  	97.444194 
2454.237205  	97.456868 
2455.674112  	97.463770 
2457.111019  	97.496357 
2458.547926  	97.520454 
2459.984833  	97.517299 
2461.421740  	97.519420 
2462.858648  	97.529894 
2464.295555  	97.514550 
2465.732462  	97.480313 
2467.169369  	97.491405 
2468.606276  	97.514654 
2470.043183  	97.503263 
2471.480090  	97.513919 
2472.916997  	97.527199 
2474.353904  	97.536430 
2475.790811  	97.594363 
2477.227718  	97.625343 
2478.664625  	97.605865 
2480.101532  	97.603250 
2481.538439  	97.610708 
2482.975346  	97.621439 
2484.412253  	97.608639 
2485.849160  	97.581801 
2487.286067  	97.602340 
2488.722974  	97.628020 
2490.159881  	97.651008 
2491.596788  	97.670294 
2493.033695  	97.626451 
2494.470602  	97.612777 
2495.907509  	97.643670 
2497.344416  	97.620466 
2498.781323  	97.632322 
2500.218230  	97.681483 
2501.655137  	97.668735 
2503.092044  	97.663247 
2504.528951  	97.677252 
2505.965858  	97.662459 
2507.402765  	97.655987 
2508.839672  	97.670963 
2510.276579  	97.691503 
2511.713486  	97.688413 
2513.150394  	97.676681 
2514.587301  	97.691895 
2516.024208  	97.672907 
2517.461115  	97.651035 
2518.898022  	97.693276 
2520.334929  	97.689765 
2521.771836  	97.662258 
2523.208743  	97.726431 
2524.645650  	97.752472 
2526.082557  	97.679969 
2527.519464  	97.667916 
2528.956371  	97.726427 
2530.393278  	97.751860 
2531.830185  	97.746003 
2533.267092  	97.725768 
2534.703999  	97.708047 
2536.140906  	97.747703 
2537.577813  	97.805577 
2539.014720  	97.810278 
2540.451627  	97.796019 
2541.888534  	97.788479 
2543.325441  	97.783896 
2544.762348  	97.795991 
2546.199255  	97.790897 
2547.636162  	97.751834 
2549.073069  	97.731699 
2550.509976  	97.769295 
2551.946883  	97.811194 
2553.383790  	97.774790 
2554.820697  	97.738422 
2556.257604  	97.782636 
2557.694511  	97.791587 
2559.131418  	97.760802 
2560.568325  	97.788742 
2562.005232  	97.809732 
2563.442140  	97.794875 
2564.879047  	97.796442 
2566.315954  	97.808005 
2567.752861  	97.841764 
2569.189768  	97.884695 
2570.626675  	97.895923 
2572.063582  	97.882717 
2573.500489  	97.853342 
2574.937396  	97.837871 
2576.374303  	97.843489 
2577.811210  	97.834605 
2579.248117  	97.827349 
2580.685024  	97.824468 
2582.121931  	97.805687 
2583.558838  	97.794620 
2584.995745  	97.807056 
2586.432652  	97.830040 
2587.869559  	97.832025 
2589.306466  	97.829460 
2590.743373  	97.862277 
2592.180280  	97.869100 
2593.617187  	97.839862 
2595.054094  	97.842445 
2596.491001  	97.837328 
2597.927908  	97.823339 
2599.364815  	97.865004 
2600.801722  	97.909642 
2602.238629  	97.888198 
2603.675536  	97.836710 
2605.112443  	97.844564 
2606.549350  	97.902891 
2607.986257  	97.903444 
2609.423164  	97.871176 
2610.860071  	97.877100 
2612.296979  	97.870488 
2613.733886  	97.846091 
2615.170793  	97.848457 
2616.607700  	97.876826 
2618.044607  	97.899242 
2619.481514  	97.871955 
2620.918421  	97.848679 
2622.355328  	97.883630 
2623.792235  	97.894825 
2625.229142  	97.858603 
2626.666049  	97.831558 
2628.102956  	97.820726 
2629.539863  	97.821473 
2630.976770  	97.816994 
2632.413677  	97.801100 
2633.850584  	97.792370 
2635.287491  	97.786882 
2636.724398  	97.791427 
2638.161305  	97.805069 
2639.598212  	97.814449 
2641.035119  	97.823444 
2642.472026  	97.810303 
2643.908933  	97.790259 
2645.345840  	97.800272 
2646.782747  	97.800890 
2648.219654  	97.788350 
2649.656561  	97.799509 
2651.093468  	97.810823 
2652.530375  	97.807585 
2653.967282  	97.797029 
2655.404189  	97.781728 
2656.841096  	97.779306 
2658.278003  	97.793519 
2659.714910  	97.808695 
2661.151817  	97.804146 
2662.588725  	97.794529 
2664.025632  	97.817098 
2665.462539  	97.836171 
2666.899446  	97.819285 
2668.336353  	97.800778 
2669.773260  	97.784887 
2671.210167  	97.777164 
2672.647074  	97.792338 
2674.083981  	97.802289 
2675.520888  	97.803233 
2676.957795  	97.802737 
2678.394702  	97.791458 
2679.831609  	97.784151 
2681.268516  	97.790297 
2682.705423  	97.802280 
2684.142330  	97.797967 
2685.579237  	97.774625 
2687.016144  	97.776125 
2688.453051  	97.788613 
2689.889958  	97.775570 
2691.326865  	97.767044 
2692.763772  	97.766727 
2694.200679  	97.761675 
2695.637586  	97.754969 
2697.074493  	97.738935 
2698.511400  	97.738665 
2699.948307  	97.745171 
2701.385214  	97.727122 
2702.822121  	97.718482 
2704.259028  	97.709788 
2705.695935  	97.685690 
2707.132842  	97.689490 
2708.569749  	97.701206 
2710.006656  	97.700908 
2711.443564  	97.701157 
2712.880471  	97.681702 
2714.317378  	97.672119 
2715.754285  	97.687187 
2717.191192  	97.681517 
2718.628099  	97.666117 
2720.065006  	97.649669 
2721.501913  	97.625206 
2722.938820  	97.625026 
2724.375727  	97.638638 
2725.812634  	97.638688 
2727.249541  	97.630781 
2728.686448  	97.613879 
2730.123355  	97.602241 
2731.560262  	97.602817 
2732.997169  	97.594232 
2734.434076  	97.581336 
2735.870983  	97.573348 
2737.307890  	97.558705 
2738.744797  	97.544073 
2740.181704  	97.543358 
2741.618611  	97.541610 
2743.055518  	97.526367 
2744.492425  	97.511660 
2745.929332  	97.498404 
2747.366239  	97.487722 
2748.803146  	97.490949 
2750.240053  	97.484424 
2751.676960  	97.459869 
2753.113867  	97.443050 
2754.550774  	97.434606 
2755.987681  	97.436793 
2757.424588  	97.442905 
2758.861495  	97.434844 
2760.298402  	97.427980 
2761.735310  	97.410074 
2763.172217  	97.376254 
2764.609124  	97.370506 
2766.046031  	97.367278 
2767.482938  	97.335987 
2768.919845  	97.317827 
2770.356752  	97.308129 
2771.793659  	97.283225 
2773.230566  	97.265000 
2774.667473  	97.263456 
2776.104380  	97.259236 
2777.541287  	97.235913 
2778.978194  	97.221261 
2780.415101  	97.232164 
2781.852008  	97.224522 
2783.288915  	97.199516 
2784.725822  	97.191900 
2786.162729  	97.183850 
2787.599636  	97.159816 
2789.036543  	97.126508 
2790.473450  	97.106801 
2791.910357  	97.115552 
2793.347264  	97.108644 
2794.784171  	97.073686 
2796.221078  	97.055978 
2797.657985  	97.054958 
2799.094892  	97.045210 
2800.531799  	97.018539 
2801.968706  	96.984055 
2803.405613  	96.965101 
2804.842520  	96.954669 
2806.279427  	96.937212 
2807.716334  	96.917350 
2809.153241  	96.895123 
2810.590148  	96.877845 
2812.027056  	96.865492 
2813.463963  	96.847685 
2814.900870  	96.828266 
2816.337777  	96.799565 
2817.774684  	96.770462 
2819.211591  	96.769429 
2820.648498  	96.770197 
2822.085405  	96.740804 
2823.522312  	96.702999 
2824.959219  	96.668671 
2826.396126  	96.628950 
2827.833033  	96.602311 
2829.269940  	96.603550 
2830.706847  	96.599557 
2832.143754  	96.570429 
2833.580661  	96.541130 
2835.017568  	96.516647 
2836.454475  	96.492857 
2837.891382  	96.472797 
2839.328289  	96.439284 
2840.765196  	96.406123 
2842.202103  	96.392652 
2843.639010  	96.365955 
2845.075917  	96.322716 
2846.512824  	96.285507 
2847.949731  	96.241772 
2849.386638  	96.192308 
2850.823545  	96.148538 
2852.260452  	96.107402 
2853.697359  	96.079811 
2855.134266  	96.070727 
2856.571173  	96.056365 
2858.008080  	96.018367 
2859.444987  	95.978197 
2860.881895  	95.963004 
2862.318802  	95.947192 
2863.755709  	95.901976 
2865.192616  	95.853252 
2866.629523  	95.821519 
2868.066430  	95.793709 
2869.503337  	95.770883 
2870.940244  	95.757259 
2872.377151  	95.731803 
2873.814058  	95.697159 
2875.250965  	95.671820 
2876.687872  	95.626733 
2878.124779  	95.564574 
2879.561686  	95.534885 
2880.998593  	95.505175 
2882.435500  	95.446640 
2883.872407  	95.413082 
2885.309314  	95.392167 
2886.746221  	95.335681 
2888.183128  	95.272805 
2889.620035  	95.232324 
2891.056942  	95.198619 
2892.493849  	95.150705 
2893.930756  	95.098528 
2895.367663  	95.070994 
2896.804570  	95.047802 
2898.241477  	95.000026 
2899.678384  	94.943640 
2901.115291  	94.886279 
2902.552198  	94.825482 
2903.989105  	94.761490 
2905.426012  	94.705470 
2906.862919  	94.681772 
2908.299826  	94.654043 
2909.736733  	94.586913 
2911.173641  	94.525168 
2912.610548  	94.460353 
2914.047455  	94.362241 
2915.484362  	94.288998 
2916.921269  	94.244838 
2918.358176  	94.178268 
2919.795083  	94.108394 
2921.231990  	94.041796 
2922.668897  	93.968011 
2924.105804  	93.917583 
2925.542711  	93.870611 
2926.979618  	93.803961 
2928.416525  	93.758867 
2929.853432  	93.716217 
2931.290339  	93.640391 
2932.727246  	93.579916 
2934.164153  	93.541247 
2935.601060  	93.482375 
2937.037967  	93.420118 
2938.474874  	93.363848 
2939.911781  	93.292663 
2941.348688  	93.228066 
2942.785595  	93.183631 
2944.222502  	93.124731 
2945.659409  	93.054103 
2947.096316  	93.009641 
2948.533223  	92.958971 
2949.970130  	92.857363 
2951.407037  	92.758354 
2952.843944  	92.695810 
2954.280851  	92.616463 
2955.717758  	92.524799 
2957.154665  	92.462139 
2958.591572  	92.395008 
2960.028479  	92.303862 
2961.465387  	92.216618 
2962.902294  	92.124058 
2964.339201  	92.027724 
2965.776108  	91.955442 
2967.213015  	91.877995 
2968.649922  	91.782911 
2970.086829  	91.709123 
2971.523736  	91.619731 
2972.960643  	91.483903 
2974.397550  	91.380256 
2975.834457  	91.330929 
2977.271364  	91.266217 
2978.708271  	91.168477 
2980.145178  	91.074152 
2981.582085  	90.990553 
2983.018992  	90.883223 
2984.455899  	90.762173 
2985.892806  	90.664453 
2987.329713  	90.568009 
2988.766620  	90.482015 
2990.203527  	90.415701 
2991.640434  	90.302043 
2993.077341  	90.161369 
2994.514248  	90.040729 
2995.951155  	89.913826 
2997.388062  	89.808756 
2998.824969  	89.715392 
3000.261876  	89.592912 
3001.698783  	89.489784 
3003.135690  	89.385957 
3004.572597  	89.250819 
3006.009504  	89.135712 
3007.446411  	89.024460 
3008.883318  	88.902790 
3010.320226  	88.786816 
3011.757133  	88.656276 
3013.194040  	88.514131 
3014.630947  	88.360932 
3016.067854  	88.224797 
3017.504761  	88.122621 
3018.941668  	87.989392 
3020.378575  	87.848386 
3021.815482  	87.720392 
3023.252389  	87.548820 
3024.689296  	87.388973 
3026.126203  	87.259316 
3027.563110  	87.120672 
3029.000017  	87.004777 
3030.436924  	86.873510 
3031.873831  	86.715600 
3033.310738  	86.564455 
3034.747645  	86.387734 
3036.184552  	86.223537 
3037.621459  	86.059205 
3039.058366  	85.855676 
3040.495273  	85.711120 
3041.932180  	85.601711 
3043.369087  	85.451097 
3044.805994  	85.286755 
3046.242901  	85.097832 
3047.679808  	84.930907 
3049.116715  	84.789835 
3050.553622  	84.590179 
3051.990529  	84.386141 
3053.427436  	84.199521 
3054.864343  	84.014255 
3056.301250  	83.868953 
3057.738157  	83.702813 
3059.175064  	83.511165 
3060.611972  	83.324304 
3062.048879  	83.122697 
3063.485786  	82.968598 
3064.922693  	82.800496 
3066.359600  	82.559861 
3067.796507  	82.362876 
3069.233414  	82.161602 
3070.670321  	81.928189 
3072.107228  	81.762419 
3073.544135  	81.594202 
3074.981042  	81.364695 
3076.417949  	81.124478 
3077.854856  	80.925222 
3079.291763  	80.759140 
3080.728670  	80.534111 
3082.165577  	80.320138 
3083.602484  	80.169625 
3085.039391  	79.942829 
3086.476298  	79.691756 
3087.913205  	79.491552 
3089.350112  	79.272666 
3090.787019  	79.054955 
3092.223926  	78.827243 
3093.660833  	78.598208 
3095.097740  	78.402277 
3096.534647  	78.174659 
3097.971554  	77.954258 
3099.408461  	77.744572 
3100.845368  	77.489491 
3102.282275  	77.261776 
3103.719182  	77.040195 
3105.156089  	76.815329 
3106.592996  	76.619631 
3108.029903  	76.361761 
3109.466811  	76.091191 
3110.903718  	75.858152 
3112.340625  	75.610143 
3113.777532  	75.392558 
3115.214439  	75.162644 
3116.651346  	74.922309 
3118.088253  	74.716313 
3119.525160  	74.449307 
3120.962067  	74.212192 
3122.398974  	74.038712 
3123.835881  	73.787646 
3125.272788  	73.530803 
3126.709695  	73.271643 
3128.146602  	72.991696 
3129.583509  	72.783643 
3131.020416  	72.562237 
3132.457323  	72.332120 
3133.894230  	72.121888 
3135.331137  	71.852264 
3136.768044  	71.610749 
3138.204951  	71.370562 
3139.641858  	71.090484 
3141.078765  	70.881198 
3142.515672  	70.680661 
3143.952579  	70.474391 
3145.389486  	70.247735 
3146.826393  	69.948863 
3148.263300  	69.736237 
3149.700207  	69.531856 
3151.137114  	69.239707 
3152.574021  	69.039606 
3154.010928  	68.850482 
3155.447835  	68.619699 
3156.884742  	68.420262 
3158.321649  	68.169189 
3159.758557  	67.933640 
3161.195464  	67.730863 
3162.632371  	67.509532 
3164.069278  	67.309087 
3165.506185  	67.061903 
3166.943092  	66.866624 
3168.379999  	66.718383 
3169.816906  	66.447535 
3171.253813  	66.247296 
3172.690720  	66.082368 
3174.127627  	65.824609 
3175.564534  	65.677487 
3177.001441  	65.492035 
3178.438348  	65.221629 
3179.875255  	65.071608 
3181.312162  	64.895109 
3182.749069  	64.713780 
3184.185976  	64.568620 
3185.622883  	64.365613 
3187.059790  	64.224599 
3188.496697  	64.054982 
3189.933604  	63.837402 
3191.370511  	63.683761 
3192.807418  	63.483695 
3194.244325  	63.364278 
3195.681232  	63.274665 
3197.118139  	63.042459 
3198.555046  	62.915503 
3199.991953  	62.790580 
3201.428860  	62.580657 
3202.865767  	62.486387 
3204.302674  	62.319682 
3205.739581  	62.159178 
3207.176488  	62.121133 
3208.613395  	61.971242 
3210.050303  	61.840987 
3211.487210  	61.729657 
3212.924117  	61.567327 
3214.361024  	61.518284 
3215.797931  	61.393912 
3217.234838  	61.250705 
3218.671745  	61.229355 
3220.108652  	61.098168 
3221.545559  	60.996858 
3222.982466  	60.948527 
3224.419373  	60.814209 
3225.856280  	60.771392 
3227.293187  	60.691406 
3228.730094  	60.564007 
3230.167001  	60.551953 
3231.603908  	60.478410 
3233.040815  	60.407931 
3234.477722  	60.355899 
3235.914629  	60.241480 
3237.351536  	60.227572 
3238.788443  	60.167583 
3240.225350  	60.073571 
3241.662257  	60.099387 
3243.099164  	60.025581 
3244.536071  	59.948739 
3245.972978  	59.945253 
3247.409885  	59.901546 
3248.846792  	59.941380 
3250.283699  	59.900348 
3251.720606  	59.795826 
3253.157513  	59.833144 
3254.594420  	59.777567 
3256.031327  	59.715093 
3257.468234  	59.736569 
3258.905142  	59.654715 
3260.342049  	59.651693 
3261.778956  	59.672842 
3263.215863  	59.621686 
3264.652770  	59.655176 
3266.089677  	59.618970 
3267.526584  	59.588165 
3268.963491  	59.638486 
3270.400398  	59.555272 
3271.837305  	59.523392 
3273.274212  	59.581915 
3274.711119  	59.577800 
3276.148026  	59.587553 
3277.584933  	59.536155 
3279.021840  	59.497220 
3280.458747  	59.521241 
3281.895654  	59.475248 
3283.332561  	59.495484 
3284.769468  	59.507874 
3286.206375  	59.443135 
3287.643282  	59.467182 
3289.080189  	59.435717 
3290.517096  	59.404690 
3291.954003  	59.468234 
3293.390910  	59.446461 
3294.827817  	59.452796 
3296.264724  	59.451045 
3297.701631  	59.404090 
3299.138538  	59.499790 
3300.575445  	59.523361 
3302.012352  	59.479704 
3303.449259  	59.522942 
3304.886166  	59.460180 
3306.323073  	59.404774 
3307.759980  	59.409720 
3309.196888  	59.383770 
3310.633795  	59.442209 
3312.070702  	59.445303 
3313.507609  	59.422312 
3314.944516  	59.470383 
3316.381423  	59.425696 
3317.818330  	59.451843 
3319.255237  	59.501059 
3320.692144  	59.422435 
3322.129051  	59.459081 
3323.565958  	59.468237 
3325.002865  	59.394530 
3326.439772  	59.438584 
3327.876679  	59.423169 
3329.313586  	59.406520 
3330.750493  	59.429637 
3332.187400  	59.364577 
3333.624307  	59.397514 
3335.061214  	59.444141 
3336.498121  	59.427649 
3337.935028  	59.467183 
3339.371935  	59.441097 
3340.808842  	59.470022 
3342.245749  	59.547078 
3343.682656  	59.515793 
3345.119563  	59.594931 
3346.556470  	59.669420 
3347.993377  	59.635310 
3349.430284  	59.671025 
3350.867191  	59.654622 
3352.304098  	59.679869 
3353.741005  	59.770972 
3355.177912  	59.744291 
3356.614819  	59.797972 
3358.051726  	59.855787 
3359.488634  	59.838093 
3360.925541  	59.937560 
3362.362448  	59.973519 
3363.799355  	59.982786 
3365.236262  	60.056267 
3366.673169  	60.054021 
3368.110076  	60.135729 
3369.546983  	60.189979 
3370.983890  	60.164076 
3372.420797  	60.307433 
3373.857704  	60.404493 
3375.294611  	60.437838 
3376.731518  	60.529820 
3378.168425  	60.568390 
3379.605332  	60.706136 
3381.042239  	60.790179 
3382.479146  	60.766593 
3383.916053  	60.949014 
3385.352960  	61.057616 
3386.789867  	61.064737 
3388.226774  	61.198768 
3389.663681  	61.233704 
3391.100588  	61.307250 
3392.537495  	61.442288 
3393.974402  	61.492242 
3395.411309  	61.694876 
3396.848216  	61.849554 
3398.285123  	61.879733 
3399.722030  	62.028037 
3401.158937  	62.114075 
3402.595844  	62.222572 
3404.032751  	62.417486 
3405.469658  	62.534243 
3406.906565  	62.715903 
3408.343473  	62.840293 
3409.780380  	62.905457 
3411.217287  	63.083879 
3412.654194  	63.134063 
3414.091101  	63.218828 
3415.528008  	63.483302 
3416.964915  	63.633924 
3418.401822  	63.771407 
3419.838729  	63.919839 
3421.275636  	64.029238 
3422.712543  	64.216661 
3424.149450  	64.329735 
3425.586357  	64.458491 
3427.023264  	64.669818 
3428.460171  	64.800636 
3429.897078  	64.986905 
3431.333985  	65.155180 
3432.770892  	65.277189 
3434.207799  	65.519405 
3435.644706  	65.657394 
3437.081613  	65.769811 
3438.518520  	66.005013 
3439.955427  	66.151785 
3441.392334  	66.318638 
3442.829241  	66.487436 
3444.266148  	66.585452 
3445.703055  	66.803108 
3447.139962  	66.977669 
3448.576869  	67.100092 
3450.013776  	67.315171 
3451.450683  	67.483895 
3452.887590  	67.681800 
3454.324497  	67.841309 
3455.761404  	67.905031 
3457.198311  	68.113317 
3458.635219  	68.310303 
3460.072126  	68.428005 
3461.509033  	68.650838 
3462.945940  	68.882098 
3464.382847  	69.108763 
3465.819754  	69.276356 
3467.256661  	69.360752 
3468.693568  	69.547015 
3470.130475  	69.742145 
3471.567382  	69.939539 
3473.004289  	70.188988 
3474.441196  	70.314888 
3475.878103  	70.424131 
3477.315010  	70.574936 
3478.751917  	70.718875 
3480.188824  	70.963755 
3481.625731  	71.163222 
3483.062638  	71.300776 
3484.499545  	71.486267 
3485.936452  	71.642790 
3487.373359  	71.895733 
3488.810266  	72.117614 
3490.247173  	72.161429 
3491.684080  	72.342598 
3493.120987  	72.593957 
3494.557894  	72.761425 
3495.994801  	72.933329 
3497.431708  	73.041957 
3498.868615  	73.215179 
3500.305522  	73.461470 
3501.742429  	73.616046 
3503.179336  	73.814092 
3504.616243  	73.995021 
3506.053150  	74.113827 
3507.490058  	74.333146 
3508.926965  	74.544011 
3510.363872  	74.723208 
3511.800779  	74.886232 
3513.237686  	75.032083 
3514.674593  	75.289042 
3516.111500  	75.485688 
3517.548407  	75.593590 
3518.985314  	75.800542 
3520.422221  	75.978803 
3521.859128  	76.165875 
3523.296035  	76.376912 
3524.732942  	76.470143 
3526.169849  	76.666254 
3527.606756  	76.924525 
3529.043663  	77.064280 
3530.480570  	77.191588 
3531.917477  	77.291064 
3533.354384  	77.488240 
3534.791291  	77.802604 
3536.228198  	77.987508 
3537.665105  	78.141898 
3539.102012  	78.337843 
3540.538919  	78.513070 
3541.975826  	78.740767 
3543.412733  	78.887905 
3544.849640  	78.950874 
3546.286547  	79.089002 
3547.723454  	79.278587 
3549.160361  	79.570214 
3550.597268  	79.843758 
3552.034175  	79.999844 
3553.471082  	80.126743 
3554.907989  	80.209759 
3556.344896  	80.428526 
3557.781804  	80.787781 
3559.218711  	80.936670 
3560.655618  	80.980900 
3562.092525  	81.106557 
3563.529432  	81.280330 
3564.966339  	81.567264 
3566.403246  	81.735514 
3567.840153  	81.690902 
3569.277060  	81.854692 
3570.713967  	82.126496 
3572.150874  	82.388867 
3573.587781  	82.606196 
3575.024688  	82.686857 
3576.461595  	82.842457 
3577.898502  	83.100139 
3579.335409  	83.292162 
3580.772316  	83.458064 
3582.209223  	83.592888 
3583.646130  	83.715497 
3585.083037  	83.876878 
3586.519944  	84.032741 
3587.956851  	84.148216 
3589.393758  	84.220419 
3590.830665  	84.431742 
3592.267572  	84.720766 
3593.704479  	84.871880 
3595.141386  	84.953038 
3596.578293  	85.090002 
3598.015200  	85.284414 
3599.452107  	85.552901 
3600.889014  	85.688634 
3602.325921  	85.731537 
3603.762828  	85.941923 
3605.199735  	86.144346 
3606.636642  	86.252454 
3608.073550  	86.332225 
3609.510457  	86.412287 
3610.947364  	86.641792 
3612.384271  	86.849786 
3613.821178  	86.927091 
3615.258085  	87.089437 
3616.694992  	87.301785 
3618.131899  	87.555040 
3619.568806  	87.802236 
3621.005713  	87.764682 
3622.442620  	87.814395 
3623.879527  	88.065906 
3625.316434  	88.277421 
3626.753341  	88.501486 
3628.190248  	88.704328 
3629.627155  	88.518551 
3631.064062  	88.499623 
3632.500969  	89.019241 
3633.937876  	89.408487 
3635.374783  	89.407398 
3636.811690  	89.475351 
3638.248597  	89.764908 
3639.685504  	90.056422 
3641.122411  	90.323279 
3642.559318  	90.441649 
3643.996225  	90.460193 
3645.433132  	90.749032 
3646.870039  	91.084566 
3648.306946  	91.091987 
3649.743853  	91.015883 
3651.180760  	90.999930 
3652.617667  	91.281627 
3654.054574  	91.798329 
3655.491481  	92.115124 
3656.928389  	92.187090 
3658.365296  	92.313809 
3659.802203  	92.608375 
3661.239110  	92.937228 
3662.676017  	93.101137 
3664.112924  	93.185655 
3665.549831  	93.320081 
3666.986738  	93.485719 
3668.423645  	93.642171 
3669.860552  	93.742269 
3671.297459  	93.692565 
3672.734366  	93.840405 
3674.171273  	94.107096 
3675.608180  	94.178377 
3677.045087  	94.050491 
3678.481994  	94.250279 
3679.918901  	94.523456 
3681.355808  	94.735587 
3682.792715  	94.941503 
3684.229622  	95.070918 
3685.666529  	95.177389 
3687.103436  	95.346350 
3688.540343  	95.383546 
3689.977250  	95.262128 
3691.414157  	95.373284 
3692.851064  	95.518543 
3694.287971  	95.722820 
3695.724878  	95.987276 
3697.161785  	96.007560 
3698.598692  	95.930423 
3700.035599  	96.038500 
3701.472506  	96.190817 
3702.909413  	96.221001 
3704.346320  	96.250384 
3705.783227  	96.289307 
3707.220135  	96.410234 
3708.657042  	96.577844 
3710.093949  	96.544426 
3711.530856  	96.284285 
3712.967763  	96.174506 
3714.404670  	96.376881 
3715.841577  	96.612561 
3717.278484  	96.812053 
3718.715391  	96.799234 
3720.152298  	96.660894 
3721.589205  	96.724348 
3723.026112  	96.802734 
3724.463019  	96.766340 
3725.899926  	96.853385 
3727.336833  	96.823272 
3728.773740  	96.746634 
3730.210647  	96.903204 
3731.647554  	96.933680 
3733.084461  	96.876047 
3734.521368  	97.115868 
3735.958275  	97.041063 
3737.395182  	96.790539 
3738.832089  	96.904987 
3740.268996  	97.045078 
3741.705903  	97.168417 
3743.142810  	97.409752 
3744.579717  	97.144250 
3746.016624  	96.787166 
3747.453531  	97.126754 
3748.890438  	97.412055 
3750.327345  	97.416252 
3751.764252  	97.286042 
3753.201159  	97.144763 
3754.638066  	97.216386 
3756.074973  	97.466560 
3757.511881  	97.597303 
3758.948788  	97.574080 
3760.385695  	97.554263 
3761.822602  	97.519997 
3763.259509  	97.593199 
3764.696416  	97.737262 
3766.133323  	97.736327 
3767.570230  	97.656444 
3769.007137  	97.714201 
3770.444044  	97.756293 
3771.880951  	97.728309 
3773.317858  	97.760943 
3774.754765  	97.784535 
3776.191672  	97.776698 
3777.628579  	97.850968 
3779.065486  	97.834291 
3780.502393  	97.576537 
3781.939300  	97.571618 
3783.376207  	97.834735 
3784.813114  	97.923177 
3786.250021  	97.804612 
3787.686928  	97.724318 
3789.123835  	97.703259 
3790.560742  	97.819071 
3791.997649  	97.959034 
3793.434556  	97.916988 
3794.871463  	97.817086 
3796.308370  	97.679867 
3797.745277  	97.644190 
3799.182184  	97.874165 
3800.619091  	97.961397 
3802.055998  	97.568758 
3803.492905  	97.346329 
3804.929812  	97.724444 
3806.366720  	98.070848 
3807.803627  	97.953752 
3809.240534  	97.689829 
3810.677441  	97.755864 
3812.114348  	97.865437 
3813.551255  	98.011297 
3814.988162  	98.050194 
3816.425069  	97.633160 
3817.861976  	97.441435 
3819.298883  	97.806294 
3820.735790  	97.990246 
3822.172697  	97.779313 
3823.609604  	97.720675 
3825.046511  	97.854412 
3826.483418  	97.906715 
3827.920325  	97.889671 
3829.357232  	97.919638 
3830.794139  	97.877653 
3832.231046  	97.716801 
3833.667953  	97.731369 
3835.104860  	97.927590 
3836.541767  	98.087773 
3837.978674  	98.047446 
3839.415581  	97.710836 
3840.852488  	97.574305 
3842.289395  	97.867838 
3843.726302  	98.066009 
3845.163209  	97.904675 
3846.600116  	97.818320 
3848.037023  	97.920052 
3849.473930  	97.968924 
3850.910837  	98.072323 
3852.347744  	98.281966 
3853.784651  	97.996784 
3855.221558  	97.418788 
3856.658466  	97.632007 
3858.095373  	97.771563 
3859.532280  	97.943943 
3860.969187  	98.173152 
3862.406094  	98.068992 
3863.843001  	97.837334 
3865.279908  	97.740368 
3866.716815  	97.782127 
3868.153722  	98.078843 
3869.590629  	98.132043 
3871.027536  	97.650867 
3872.464443  	97.755617 
3873.901350  	97.997696 
3875.338257  	97.935024 
3876.775164  	98.018110 
3878.212071  	98.112050 
3879.648978  	97.970301 
3881.085885  	97.754406 
3882.522792  	97.695224 
3883.959699  	97.871244 
3885.396606  	98.024092 
3886.833513  	97.847064 
3888.270420  	97.825370 
3889.707327  	98.062247 
3891.144234  	98.168958 
3892.581141  	97.953768 
3894.018048  	97.788146 
3895.454955  	97.856439 
3896.891862  	97.995704 
3898.328769  	98.020104 
3899.765676  	97.856605 
3901.202583  	97.725347 
3902.639490  	97.828421 
3904.076397  	97.834902 
3905.513305  	97.703288 
3906.950212  	97.831367 
3908.387119  	97.951131 
3909.824026  	97.922435 
3911.260933  	97.960855 
3912.697840  	97.983959 
3914.134747  	98.011706 
3915.571654  	98.076267 
3917.008561  	97.997130 
3918.445468  	97.868901 
3919.882375  	97.900582 
3921.319282  	97.908388 
3922.756189  	97.936617 
3924.193096  	98.018889 
3925.630003  	97.993796 
3927.066910  	97.929546 
3928.503817  	97.960831 
3929.940724  	97.981356 
3931.377631  	97.982486 
3932.814538  	97.942607 
3934.251445  	97.877268 
3935.688352  	97.877457 
3937.125259  	97.926414 
3938.562166  	97.959580 
3939.999073  	98.010722 
3941.435980  	98.011610 
3942.872887  	97.934866 
3944.309794  	97.877114 
3945.746701  	97.938756 
3947.183608  	97.978063 
3948.620515  	97.943959 
3950.057422  	97.938866 
3951.494329  	97.929728 
3952.931236  	97.913734 
3954.368143  	97.964093 
3955.805051  	97.974006 
3957.241958  	97.913012 
3958.678865  	97.942560 
3960.115772  	97.984245 
3961.552679  	97.962334 
3962.989586  	97.977321 
3964.426493  	98.017781 
3965.863400  	98.000743 
3967.300307  	97.948386 
3968.737214  	97.940204 
3970.174121  	97.990413 
3971.611028  	98.013464 
3973.047935  	97.984832 
3974.484842  	97.983129 
3975.921749  	98.012889 
3977.358656  	98.008957 
3978.795563  	97.993918 
3980.232470  	97.999416 
3981.669377  	97.990730 
3983.106284  	97.989725 
3984.543191  	98.004510 
3985.980098  	97.977676 
3987.417005  	97.957037 
3988.853912  	97.969877 
3990.290819  	97.948065 
3991.727726  	97.932759 
3993.164633  	97.957780 
3994.601540  	97.979163 
3996.038447  	98.003903 
3997.475354  	98.005992 
3998.912261  	97.991045 
4000.349168  	98.011659 