##TITLE=No Description
##DATA TYPE=INFRARED SPECTRUM
##XUNITS=1/CM
##YUNITS=%T
399.460154  	78.791299 
400.897061  	79.796266 
402.333968  	80.812616 
403.770875  	80.489975 
405.207782  	80.977118 
406.644689  	80.428065 
408.081596  	80.171814 
409.518503  	81.182656 
410.955410  	80.964013 
412.392317  	80.850304 
413.829224  	80.294515 
415.266131  	79.128023 
416.703038  	79.958070 
418.139945  	80.520347 
419.576852  	79.719494 
421.013759  	80.625558 
422.450666  	80.414366 
423.887574  	80.102187 
425.324481  	80.530385 
426.761388  	80.125619 
428.198295  	79.834573 
429.635202  	79.503329 
431.072109  	79.237234 
432.509016  	80.177596 
433.945923  	80.457389 
435.382830  	79.644268 
436.819737  	79.157802 
438.256644  	79.324889 
439.693551  	80.152895 
441.130458  	80.480770 
442.567365  	80.101331 
444.004272  	80.061396 
445.441179  	79.575316 
446.878086  	79.027322 
448.314993  	79.261191 
449.751900  	79.622307 
451.188807  	79.712320 
452.625714  	79.246609 
454.062621  	79.277543 
455.499528  	80.311438 
456.936435  	80.696694 
458.373342  	80.203690 
459.810249  	79.932178 
461.247156  	79.600404 
462.684063  	79.615175 
464.120970  	79.694585 
465.557877  	79.497701 
466.994784  	79.302925 
468.431691  	78.854014 
469.868598  	78.804004 
471.305505  	79.129545 
472.742413  	78.908145 
474.179320  	78.984404 
475.616227  	79.079400 
477.053134  	78.810483 
478.490041  	79.047486 
479.926948  	79.092426 
481.363855  	78.874472 
482.800762  	79.291988 
484.237669  	79.492567 
485.674576  	79.406519 
487.111483  	79.666929 
488.548390  	79.571639 
489.985297  	79.082936 
491.422204  	78.977368 
492.859111  	79.339684 
494.296018  	79.528406 
495.732925  	79.345380 
497.169832  	79.336342 
498.606739  	79.483160 
500.043646  	79.303634 
501.480553  	78.960425 
502.917460  	78.959258 
504.354367  	79.268005 
505.791274  	79.337132 
507.228181  	79.184305 
508.665088  	79.271903 
510.101995  	79.322768 
511.538902  	79.237814 
512.975809  	79.292157 
514.412716  	79.279829 
515.849623  	79.262304 
517.286530  	79.393749 
518.723437  	79.433159 
520.160344  	79.425282 
521.597251  	79.477639 
523.034159  	79.616674 
524.471066  	79.678679 
525.907973  	79.398087 
527.344880  	79.236353 
528.781787  	79.329743 
530.218694  	79.332300 
531.655601  	79.436300 
533.092508  	79.533736 
534.529415  	79.424712 
535.966322  	79.281603 
537.403229  	79.106110 
538.840136  	79.163205 
540.277043  	79.386860 
541.713950  	79.260903 
543.150857  	79.151991 
544.587764  	79.277670 
546.024671  	79.297860 
547.461578  	79.320383 
548.898485  	79.287491 
550.335392  	79.195019 
551.772299  	79.296119 
553.209206  	79.364828 
554.646113  	79.378528 
556.083020  	79.469607 
557.519927  	79.447017 
558.956834  	79.442151 
560.393741  	79.562088 
561.830648  	79.571310 
563.267555  	79.515428 
564.704462  	79.578778 
566.141369  	79.689918 
567.578276  	79.703278 
569.015183  	79.700762 
570.452090  	79.764809 
571.888997  	79.763723 
573.325905  	79.706417 
574.762812  	79.674551 
576.199719  	79.698620 
577.636626  	79.802051 
579.073533  	79.807156 
580.510440  	79.733729 
581.947347  	79.763379 
583.384254  	79.766905 
584.821161  	79.800367 
586.258068  	79.957297 
587.694975  	79.958059 
589.131882  	79.818556 
590.568789  	79.783427 
592.005696  	79.884583 
593.442603  	79.952682 
594.879510  	79.848399 
596.316417  	79.794620 
597.753324  	79.880364 
599.190231  	79.870677 
600.627138  	79.875214 
602.064045  	79.964930 
603.500952  	79.992781 
604.937859  	80.031959 
606.374766  	80.065614 
607.811673  	80.092631 
609.248580  	80.129846 
610.685487  	80.113839 
612.122394  	80.067912 
613.559301  	80.164388 
614.996208  	80.191162 
616.433115  	80.229688 
617.870022  	80.312258 
619.306929  	80.285056 
620.743836  	80.310393 
622.180744  	80.407061 
623.617651  	80.426009 
625.054558  	80.464269 
626.491465  	80.554025 
627.928372  	80.594260 
629.365279  	80.605503 
630.802186  	80.652752 
632.239093  	80.709079 
633.676000  	80.756066 
635.112907  	80.781359 
636.549814  	80.800885 
637.986721  	80.839603 
639.423628  	80.889184 
640.860535  	80.930082 
642.297442  	80.980141 
643.734349  	80.989941 
645.171256  	80.984250 
646.608163  	81.036104 
648.045070  	81.101270 
649.481977  	81.124922 
650.918884  	81.145614 
652.355791  	81.192271 
653.792698  	81.263185 
655.229605  	81.329306 
656.666512  	81.370162 
658.103419  	81.411128 
659.540326  	81.468723 
660.977233  	81.511739 
662.414140  	81.544522 
663.851047  	81.562344 
665.287954  	81.649596 
666.724861  	81.734477 
668.161768  	81.688837 
669.598675  	81.642775 
671.035582  	81.703206 
672.472490  	81.747346 
673.909397  	81.885454 
675.346304  	82.000270 
676.783211  	82.017825 
678.220118  	82.067643 
679.657025  	82.114422 
681.093932  	82.180507 
682.530839  	82.286974 
683.967746  	82.334700 
685.404653  	82.367560 
686.841560  	82.424493 
688.278467  	82.490270 
689.715374  	82.567515 
691.152281  	82.607805 
692.589188  	82.638988 
694.026095  	82.716042 
695.463002  	82.752468 
696.899909  	82.797693 
698.336816  	82.888873 
699.773723  	82.928946 
701.210630  	82.955489 
702.647537  	82.980950 
704.084444  	83.049136 
705.521351  	83.146948 
706.958258  	83.221245 
708.395165  	83.289107 
709.832072  	83.371185 
711.268979  	83.432560 
712.705886  	83.499532 
714.142793  	83.543327 
715.579700  	83.579366 
717.016607  	83.628354 
718.453514  	83.691425 
719.890421  	83.786119 
721.327328  	83.871914 
722.764236  	83.874786 
724.201143  	83.907564 
725.638050  	83.959035 
727.074957  	83.966180 
728.511864  	84.066276 
729.948771  	84.191334 
731.385678  	84.294029 
732.822585  	84.403949 
734.259492  	84.429717 
735.696399  	84.492513 
737.133306  	84.624289 
738.570213  	84.631881 
740.007120  	84.579939 
741.444027  	84.615498 
742.880934  	84.755985 
744.317841  	84.926362 
745.754748  	85.020988 
747.191655  	85.090059 
748.628562  	85.149589 
750.065469  	85.180636 
751.502376  	85.255855 
752.939283  	85.320203 
754.376190  	85.374400 
755.813097  	85.476807 
757.250004  	85.539995 
758.686911  	85.609425 
760.123818  	85.698053 
761.560725  	85.706634 
762.997632  	85.750869 
764.434539  	85.858091 
765.871446  	85.915548 
767.308353  	85.962146 
768.745260  	86.039931 
770.182167  	86.149383 
771.619075  	86.236961 
773.055982  	86.285075 
774.492889  	86.404540 
775.929796  	86.528915 
777.366703  	86.568053 
778.803610  	86.626531 
780.240517  	86.719779 
781.677424  	86.821184 
783.114331  	86.888359 
784.551238  	86.875782 
785.988145  	86.933649 
787.425052  	87.081877 
788.861959  	87.162807 
790.298866  	87.196318 
791.735773  	87.254509 
793.172680  	87.373410 
794.609587  	87.501542 
796.046494  	87.530620 
797.483401  	87.561149 
798.920308  	87.650478 
800.357215  	87.714235 
801.794122  	87.811525 
803.231029  	87.921355 
804.667936  	87.953918 
806.104843  	88.009408 
807.541750  	88.138713 
808.978657  	88.264367 
810.415564  	88.343511 
811.852471  	88.390986 
813.289378  	88.463941 
814.726285  	88.576690 
816.163192  	88.673205 
817.600099  	88.721094 
819.037006  	88.772553 
820.473913  	88.871053 
821.910821  	88.963198 
823.347728  	89.040291 
824.784635  	89.124692 
826.221542  	89.171960 
827.658449  	89.223414 
829.095356  	89.322117 
830.532263  	89.412069 
831.969170  	89.491805 
833.406077  	89.563401 
834.842984  	89.642859 
836.279891  	89.747728 
837.716798  	89.792283 
839.153705  	89.823550 
840.590612  	89.937239 
842.027519  	90.040098 
843.464426  	90.118022 
844.901333  	90.199613 
846.338240  	90.240463 
847.775147  	90.312697 
849.212054  	90.428802 
850.648961  	90.508299 
852.085868  	90.597304 
853.522775  	90.720832 
854.959682  	90.830870 
856.396589  	90.913006 
857.833496  	90.971681 
859.270403  	91.033889 
860.707310  	91.098181 
862.144217  	91.147139 
863.581124  	91.219277 
865.018031  	91.329304 
866.454938  	91.432630 
867.891845  	91.482639 
869.328752  	91.509751 
870.765660  	91.587053 
872.202567  	91.680620 
873.639474  	91.757146 
875.076381  	91.855170 
876.513288  	91.930486 
877.950195  	91.976704 
879.387102  	92.068413 
880.824009  	92.168338 
882.260916  	92.241956 
883.697823  	92.333778 
885.134730  	92.422465 
886.571637  	92.471909 
888.008544  	92.507404 
889.445451  	92.571672 
890.882358  	92.675363 
892.319265  	92.760622 
893.756172  	92.790946 
895.193079  	92.828748 
896.629986  	92.919166 
898.066893  	93.012465 
899.503800  	93.055788 
900.940707  	93.079306 
902.377614  	93.139518 
903.814521  	93.207592 
905.251428  	93.231756 
906.688335  	93.259563 
908.125242  	93.324836 
909.562149  	93.364115 
910.999056  	93.380024 
912.435963  	93.432078 
913.872870  	93.499476 
915.309777  	93.571856 
916.746684  	93.654612 
918.183591  	93.703429 
919.620498  	93.743786 
921.057406  	93.798566 
922.494313  	93.818231 
923.931220  	93.868669 
925.368127  	93.992838 
926.805034  	94.059550 
928.241941  	94.064062 
929.678848  	94.116415 
931.115755  	94.177087 
932.552662  	94.207352 
933.989569  	94.261113 
935.426476  	94.313610 
936.863383  	94.325060 
938.300290  	94.343344 
939.737197  	94.388357 
941.174104  	94.424010 
942.611011  	94.437074 
944.047918  	94.440119 
945.484825  	94.466443 
946.921732  	94.532987 
948.358639  	94.592929 
949.795546  	94.630474 
951.232453  	94.680969 
952.669360  	94.716693 
954.106267  	94.731040 
955.543174  	94.784336 
956.980081  	94.831308 
958.416988  	94.813705 
959.853895  	94.819983 
961.290802  	94.882191 
962.727709  	94.924890 
964.164616  	94.953875 
965.601523  	94.995486 
967.038430  	95.022177 
968.475337  	95.037278 
969.912244  	95.050124 
971.349152  	95.067700 
972.786059  	95.118478 
974.222966  	95.175710 
975.659873  	95.193851 
977.096780  	95.196171 
978.533687  	95.211501 
979.970594  	95.241155 
981.407501  	95.285407 
982.844408  	95.326900 
984.281315  	95.343144 
985.718222  	95.345826 
987.155129  	95.364070 
988.592036  	95.402497 
990.028943  	95.445474 
991.465850  	95.461447 
992.902757  	95.440502 
994.339664  	95.453829 
995.776571  	95.507594 
997.213478  	95.494698 
998.650385  	95.460582 
1000.087292  	95.503413 
1001.524199  	95.537103 
1002.961106  	95.528072 
1004.398013  	95.525524 
1005.834920  	95.502428 
1007.271827  	95.494350 
1008.708734  	95.525118 
1010.145641  	95.535139 
1011.582548  	95.550419 
1013.019455  	95.578624 
1014.456362  	95.588606 
1015.893269  	95.616430 
1017.330176  	95.632929 
1018.767083  	95.625143 
1020.203991  	95.648050 
1021.640898  	95.650221 
1023.077805  	95.630128 
1024.514712  	95.679876 
1025.951619  	95.739920 
1027.388526  	95.711818 
1028.825433  	95.646387 
1030.262340  	95.634662 
1031.699247  	95.655973 
1033.136154  	95.630924 
1034.573061  	95.594840 
1036.009968  	95.607389 
1037.446875  	95.615049 
1038.883782  	95.608854 
1040.320689  	95.639509 
1041.757596  	95.682559 
1043.194503  	95.693724 
1044.631410  	95.682102 
1046.068317  	95.699468 
1047.505224  	95.740381 
1048.942131  	95.737442 
1050.379038  	95.730297 
1051.815945  	95.776419 
1053.252852  	95.813618 
1054.689759  	95.807114 
1056.126666  	95.783871 
1057.563573  	95.785463 
1059.000480  	95.846400 
1060.437387  	95.899779 
1061.874294  	95.891769 
1063.311201  	95.884419 
1064.748108  	95.904373 
1066.185015  	95.921860 
1067.621922  	95.920288 
1069.058829  	95.907645 
1070.495737  	95.920218 
1071.932644  	95.936379 
1073.369551  	95.918035 
1074.806458  	95.924548 
1076.243365  	95.973851 
1077.680272  	95.997147 
1079.117179  	95.984410 
1080.554086  	95.966249 
1081.990993  	95.959251 
1083.427900  	95.965626 
1084.864807  	95.960711 
1086.301714  	95.954777 
1087.738621  	95.962415 
1089.175528  	95.945009 
1090.612435  	95.925799 
1092.049342  	95.946235 
1093.486249  	95.964674 
1094.923156  	95.983534 
1096.360063  	96.010535 
1097.796970  	95.993844 
1099.233877  	95.981800 
1100.670784  	96.019657 
1102.107691  	96.035218 
1103.544598  	96.022397 
1104.981505  	96.016993 
1106.418412  	96.014564 
1107.855319  	96.032557 
1109.292226  	96.059730 
1110.729133  	96.068274 
1112.166040  	96.059301 
1113.602947  	96.046234 
1115.039854  	96.071563 
1116.476761  	96.097966 
1117.913668  	96.064929 
1119.350575  	96.051721 
1120.787483  	96.077128 
1122.224390  	96.078758 
1123.661297  	96.083765 
1125.098204  	96.085368 
1126.535111  	96.076351 
1127.972018  	96.098183 
1129.408925  	96.108728 
1130.845832  	96.111515 
1132.282739  	96.147740 
1133.719646  	96.148322 
1135.156553  	96.109007 
1136.593460  	96.099530 
1138.030367  	96.108288 
1139.467274  	96.107819 
1140.904181  	96.104183 
1142.341088  	96.110209 
1143.777995  	96.122077 
1145.214902  	96.132403 
1146.651809  	96.150829 
1148.088716  	96.138999 
1149.525623  	96.092455 
1150.962530  	96.090743 
1152.399437  	96.110010 
1153.836344  	96.093196 
1155.273251  	96.089031 
1156.710158  	96.103253 
1158.147065  	96.098562 
1159.583972  	96.091096 
1161.020879  	96.096257 
1162.457786  	96.103812 
1163.894693  	96.100474 
1165.331600  	96.100200 
1166.768507  	96.113011 
1168.205414  	96.100247 
1169.642322  	96.066599 
1171.079229  	96.057857 
1172.516136  	96.064196 
1173.953043  	96.064529 
1175.389950  	96.066461 
1176.826857  	96.076229 
1178.263764  	96.075729 
1179.700671  	96.048859 
1181.137578  	96.037071 
1182.574485  	96.053437 
1184.011392  	96.044466 
1185.448299  	96.021151 
1186.885206  	96.022582 
1188.322113  	96.030213 
1189.759020  	96.034637 
1191.195927  	96.045736 
1192.632834  	96.053689 
1194.069741  	96.039688 
1195.506648  	96.016306 
1196.943555  	96.016390 
1198.380462  	96.019212 
1199.817369  	96.006414 
1201.254276  	96.006262 
1202.691183  	96.002676 
1204.128090  	95.984593 
1205.564997  	95.982210 
1207.001904  	95.983020 
1208.438811  	95.979635 
1209.875718  	95.982669 
1211.312625  	95.973485 
1212.749532  	95.962140 
1214.186439  	95.970267 
1215.623346  	95.981857 
1217.060253  	95.982979 
1218.497160  	95.983180 
1219.934068  	95.993128 
1221.370975  	95.986688 
1222.807882  	95.953510 
1224.244789  	95.942467 
1225.681696  	95.959321 
1227.118603  	95.970273 
1228.555510  	95.969022 
1229.992417  	95.943868 
1231.429324  	95.920260 
1232.866231  	95.933574 
1234.303138  	95.942873 
1235.740045  	95.932613 
1237.176952  	95.934089 
1238.613859  	95.938882 
1240.050766  	95.936299 
1241.487673  	95.928904 
1242.924580  	95.919389 
1244.361487  	95.911634 
1245.798394  	95.890134 
1247.235301  	95.867995 
1248.672208  	95.877125 
1250.109115  	95.890104 
1251.546022  	95.880297 
1252.982929  	95.868270 
1254.419836  	95.862836 
1255.856743  	95.856981 
1257.293650  	95.850584 
1258.730557  	95.844361 
1260.167464  	95.837719 
1261.604371  	95.833454 
1263.041278  	95.833136 
1264.478185  	95.819242 
1265.915092  	95.785517 
1267.351999  	95.769350 
1268.788907  	95.779725 
1270.225814  	95.773062 
1271.662721  	95.750666 
1273.099628  	95.750086 
1274.536535  	95.754978 
1275.973442  	95.739313 
1277.410349  	95.723372 
1278.847256  	95.724177 
1280.284163  	95.734918 
1281.721070  	95.741394 
1283.157977  	95.730547 
1284.594884  	95.720937 
1286.031791  	95.734050 
1287.468698  	95.751465 
1288.905605  	95.760371 
1290.342512  	95.764283 
1291.779419  	95.759490 
1293.216326  	95.754473 
1294.653233  	95.754657 
1296.090140  	95.754758 
1297.527047  	95.759946 
1298.963954  	95.772048 
1300.400861  	95.785199 
1301.837768  	95.792807 
1303.274675  	95.794897 
1304.711582  	95.804963 
1306.148489  	95.803261 
1307.585396  	95.809139 
1309.022303  	95.810835 
1310.459210  	95.822533 
1311.896117  	95.826283 
1313.333024  	95.828760 
1314.769931  	95.827814 
1316.206838  	95.829561 
1317.643745  	95.824993 
1319.080653  	95.813730 
1320.517560  	95.808768 
1321.954467  	95.809605 
1323.391374  	95.813138 
1324.828281  	95.820747 
1326.265188  	95.822246 
1327.702095  	95.820581 
1329.139002  	95.813507 
1330.575909  	95.797864 
1332.012816  	95.794301 
1333.449723  	95.786098 
1334.886630  	95.769138 
1336.323537  	95.758572 
1337.760444  	95.741619 
1339.197351  	95.720732 
1340.634258  	95.710035 
1342.071165  	95.713726 
1343.508072  	95.703016 
1344.944979  	95.685629 
1346.381886  	95.674272 
1347.818793  	95.678967 
1349.255700  	95.673213 
1350.692607  	95.644435 
1352.129514  	95.624666 
1353.566421  	95.604254 
1355.003328  	95.587901 
1356.440235  	95.571143 
1357.877142  	95.550029 
1359.314049  	95.547752 
1360.750956  	95.548596 
1362.187863  	95.526027 
1363.624770  	95.478020 
1365.061677  	95.457305 
1366.498584  	95.432951 
1367.935491  	95.396488 
1369.372399  	95.354081 
1370.809306  	95.325170 
1372.246213  	95.321099 
1373.683120  	95.309789 
1375.120027  	95.247564 
1376.556934  	95.178290 
1377.993841  	95.147476 
1379.430748  	95.135544 
1380.867655  	95.129857 
1382.304562  	95.123550 
1383.741469  	95.100471 
1385.178376  	95.091606 
1386.615283  	95.053865 
1388.052190  	95.001559 
1389.489097  	95.002195 
1390.926004  	95.020519 
1392.362911  	95.052531 
1393.799818  	95.064572 
1395.236725  	95.040680 
1396.673632  	95.051331 
1398.110539  	95.102598 
1399.547446  	95.105154 
1400.984353  	95.093308 
1402.421260  	95.136654 
1403.858167  	95.200585 
1405.295074  	95.238457 
1406.731981  	95.237611 
1408.168888  	95.198260 
1409.605795  	95.209453 
1411.042702  	95.260952 
1412.479609  	95.303895 
1413.916516  	95.359116 
1415.353423  	95.391627 
1416.790330  	95.420323 
1418.227238  	95.455550 
1419.664145  	95.393782 
1421.101052  	95.408534 
1422.537959  	95.493144 
1423.974866  	95.515847 
1425.411773  	95.503761 
1426.848680  	95.536151 
1428.285587  	95.534744 
1429.722494  	95.512636 
1431.159401  	95.529338 
1432.596308  	95.527349 
1434.033215  	95.564906 
1435.470122  	95.653855 
1436.907029  	95.597257 
1438.343936  	95.511682 
1439.780843  	95.537099 
1441.217750  	95.568845 
1442.654657  	95.582011 
1444.091564  	95.615229 
1445.528471  	95.644444 
1446.965378  	95.648496 
1448.402285  	95.590785 
1449.839192  	95.576261 
1451.276099  	95.669998 
1452.713006  	95.722612 
1454.149913  	95.704598 
1455.586820  	95.730446 
1457.023727  	95.621082 
1458.460634  	95.572066 
1459.897541  	95.645922 
1461.334448  	95.638354 
1462.771355  	95.622254 
1464.208262  	95.646378 
1465.645169  	95.670183 
1467.082076  	95.675918 
1468.518984  	95.624096 
1469.955891  	95.593250 
1471.392798  	95.626697 
1472.829705  	95.587936 
1474.266612  	95.620859 
1475.703519  	95.680167 
1477.140426  	95.590321 
1478.577333  	95.518648 
1480.014240  	95.538128 
1481.451147  	95.552675 
1482.888054  	95.591551 
1484.324961  	95.611323 
1485.761868  	95.578991 
1487.198775  	95.551483 
1488.635682  	95.515512 
1490.072589  	95.465534 
1491.509496  	95.467544 
1492.946403  	95.490511 
1494.383310  	95.526386 
1495.820217  	95.506140 
1497.257124  	95.397753 
1498.694031  	95.369392 
1500.130938  	95.366129 
1501.567845  	95.335917 
1503.004752  	95.337521 
1504.441659  	95.380878 
1505.878566  	95.413276 
1507.315473  	95.280323 
1508.752380  	95.199279 
1510.189287  	95.198979 
1511.626194  	95.178353 
1513.063101  	95.162668 
1514.500008  	95.190348 
1515.936915  	95.170048 
1517.373822  	95.073108 
1518.810730  	95.059758 
1520.247637  	95.085692 
1521.684544  	94.987312 
1523.121451  	94.907905 
1524.558358  	94.941528 
1525.995265  	94.971413 
1527.432172  	94.933005 
1528.869079  	94.887888 
1530.305986  	94.820754 
1531.742893  	94.780169 
1533.179800  	94.758492 
1534.616707  	94.663117 
1536.053614  	94.628053 
1537.490521  	94.676466 
1538.927428  	94.636986 
1540.364335  	94.453095 
1541.801242  	94.343229 
1543.238149  	94.311043 
1544.675056  	94.301371 
1546.111963  	94.209112 
1547.548870  	94.155631 
1548.985777  	94.136452 
1550.422684  	94.020382 
1551.859591  	93.949832 
1553.296498  	93.928168 
1554.733405  	93.819835 
1556.170312  	93.798084 
1557.607219  	93.860782 
1559.044126  	93.585942 
1560.481033  	93.370077 
1561.917940  	93.377590 
1563.354847  	93.372820 
1564.791754  	93.333322 
1566.228661  	93.179164 
1567.665569  	93.207839 
1569.102476  	93.284498 
1570.539383  	93.105996 
1571.976290  	92.978152 
1573.413197  	92.965100 
1574.850104  	92.980304 
1576.287011  	92.945929 
1577.723918  	92.803605 
1579.160825  	92.746737 
1580.597732  	92.723771 
1582.034639  	92.639675 
1583.471546  	92.599448 
1584.908453  	92.579570 
1586.345360  	92.546188 
1587.782267  	92.505605 
1589.219174  	92.406591 
1590.656081  	92.326591 
1592.092988  	92.283697 
1593.529895  	92.196158 
1594.966802  	92.129000 
1596.403709  	92.065727 
1597.840616  	91.961626 
1599.277523  	91.863614 
1600.714430  	91.736955 
1602.151337  	91.648160 
1603.588244  	91.560019 
1605.025151  	91.398494 
1606.462058  	91.261719 
1607.898965  	91.137509 
1609.335872  	90.986354 
1610.772779  	90.888476 
1612.209686  	90.760339 
1613.646593  	90.620763 
1615.083500  	90.594339 
1616.520407  	90.345663 
1617.957315  	90.004883 
1619.394222  	89.900435 
1620.831129  	89.816918 
1622.268036  	89.801651 
1623.704943  	89.637588 
1625.141850  	89.393661 
1626.578757  	89.324750 
1628.015664  	89.166970 
1629.452571  	89.023723 
1630.889478  	89.053141 
1632.326385  	89.080566 
1633.763292  	89.195692 
1635.200199  	89.167743 
1636.637106  	88.699261 
1638.074013  	88.790556 
1639.510920  	88.982826 
1640.947827  	89.021581 
1642.384734  	89.031251 
1643.821641  	89.065308 
1645.258548  	89.222582 
1646.695455  	89.349307 
1648.132362  	89.171238 
1649.569269  	89.337318 
1651.006176  	89.667393 
1652.443083  	89.754991 
1653.879990  	89.410021 
1655.316897  	89.717711 
1656.753804  	89.939492 
1658.190711  	90.097403 
1659.627618  	90.163099 
1661.064525  	90.331737 
1662.501432  	90.563648 
1663.938339  	90.709404 
1665.375246  	90.826434 
1666.812154  	90.956809 
1668.249061  	91.131426 
1669.685968  	91.365446 
1671.122875  	91.531240 
1672.559782  	91.670040 
1673.996689  	91.840909 
1675.433596  	91.929657 
1676.870503  	92.076870 
1678.307410  	92.278835 
1679.744317  	92.429731 
1681.181224  	92.583074 
1682.618131  	92.783782 
1684.055038  	92.918382 
1685.491945  	93.037871 
1686.928852  	93.197477 
1688.365759  	93.375725 
1689.802666  	93.524178 
1691.239573  	93.648694 
1692.676480  	93.858151 
1694.113387  	94.066358 
1695.550294  	94.162450 
1696.987201  	94.179481 
1698.424108  	94.331325 
1699.861015  	94.515711 
1701.297922  	94.545979 
1702.734829  	94.655659 
1704.171736  	94.813035 
1705.608643  	94.903793 
1707.045550  	94.957698 
1708.482457  	95.060046 
1709.919364  	95.153785 
1711.356271  	95.302294 
1712.793178  	95.437578 
1714.230085  	95.488884 
1715.666992  	95.603611 
1717.103900  	95.733275 
1718.540807  	95.758280 
1719.977714  	95.839952 
1721.414621  	95.923437 
1722.851528  	96.019932 
1724.288435  	96.107634 
1725.725342  	96.156015 
1727.162249  	96.266016 
1728.599156  	96.345628 
1730.036063  	96.351891 
1731.472970  	96.394261 
1732.909877  	96.477102 
1734.346784  	96.503107 
1735.783691  	96.532900 
1737.220598  	96.584209 
1738.657505  	96.620767 
1740.094412  	96.634034 
1741.531319  	96.681072 
1742.968226  	96.747793 
1744.405133  	96.767057 
1745.842040  	96.794037 
1747.278947  	96.843487 
1748.715854  	96.874605 
1750.152761  	96.918971 
1751.589668  	96.945291 
1753.026575  	96.933851 
1754.463482  	96.986303 
1755.900389  	97.042096 
1757.337296  	97.086986 
1758.774203  	97.168225 
1760.211110  	97.185826 
1761.648017  	97.179394 
1763.084924  	97.144768 
1764.521831  	97.126840 
1765.958738  	97.226709 
1767.395646  	97.277079 
1768.832553  	97.242222 
1770.269460  	97.283007 
1771.706367  	97.282572 
1773.143274  	97.233137 
1774.580181  	97.288446 
1776.017088  	97.290984 
1777.453995  	97.316739 
1778.890902  	97.395944 
1780.327809  	97.420117 
1781.764716  	97.391000 
1783.201623  	97.358760 
1784.638530  	97.347216 
1786.075437  	97.414785 
1787.512344  	97.480648 
1788.949251  	97.514027 
1790.386158  	97.521705 
1791.823065  	97.456737 
1793.259972  	97.375857 
1794.696879  	97.397537 
1796.133786  	97.438356 
1797.570693  	97.462532 
1799.007600  	97.483901 
1800.444507  	97.477122 
1801.881414  	97.426226 
1803.318321  	97.449467 
1804.755228  	97.494164 
1806.192135  	97.468079 
1807.629042  	97.494491 
1809.065949  	97.543750 
1810.502856  	97.555354 
1811.939763  	97.565582 
1813.376670  	97.571622 
1814.813577  	97.580576 
1816.250485  	97.604482 
1817.687392  	97.612169 
1819.124299  	97.618314 
1820.561206  	97.618298 
1821.998113  	97.587615 
1823.435020  	97.585679 
1824.871927  	97.571639 
1826.308834  	97.534737 
1827.745741  	97.563254 
1829.182648  	97.572349 
1830.619555  	97.534094 
1832.056462  	97.557844 
1833.493369  	97.564966 
1834.930276  	97.550413 
1836.367183  	97.534753 
1837.804090  	97.516540 
1839.240997  	97.580832 
1840.677904  	97.658079 
1842.114811  	97.640603 
1843.551718  	97.600283 
1844.988625  	97.579003 
1846.425532  	97.583135 
1847.862439  	97.590317 
1849.299346  	97.591736 
1850.736253  	97.613779 
1852.173160  	97.627799 
1853.610067  	97.634060 
1855.046974  	97.646332 
1856.483881  	97.596769 
1857.920788  	97.534338 
1859.357695  	97.522960 
1860.794602  	97.550590 
1862.231509  	97.649572 
1863.668416  	97.686186 
1865.105323  	97.637263 
1866.542231  	97.665140 
1867.979138  	97.652009 
1869.416045  	97.556710 
1870.852952  	97.579387 
1872.289859  	97.594107 
1873.726766  	97.595774 
1875.163673  	97.639055 
1876.600580  	97.664553 
1878.037487  	97.668191 
1879.474394  	97.647544 
1880.911301  	97.615621 
1882.348208  	97.624121 
1883.785115  	97.627035 
1885.222022  	97.626287 
1886.658929  	97.667035 
1888.095836  	97.698417 
1889.532743  	97.669733 
1890.969650  	97.617682 
1892.406557  	97.599324 
1893.843464  	97.558647 
1895.280371  	97.515482 
1896.717278  	97.591507 
1898.154185  	97.667829 
1899.591092  	97.640075 
1901.027999  	97.583991 
1902.464906  	97.515690 
1903.901813  	97.498661 
1905.338720  	97.562563 
1906.775627  	97.613142 
1908.212534  	97.578707 
1909.649441  	97.509743 
1911.086348  	97.478893 
1912.523255  	97.600404 
1913.960162  	97.607656 
1915.397069  	97.539097 
1916.833977  	97.573699 
1918.270884  	97.599720 
1919.707791  	97.618482 
1921.144698  	97.646592 
1922.581605  	97.608344 
1924.018512  	97.579332 
1925.455419  	97.583110 
1926.892326  	97.566319 
1928.329233  	97.541422 
1929.766140  	97.487011 
1931.203047  	97.462748 
1932.639954  	97.533259 
1934.076861  	97.621126 
1935.513768  	97.701882 
1936.950675  	97.694196 
1938.387582  	97.638244 
1939.824489  	97.643314 
1941.261396  	97.599269 
1942.698303  	97.546887 
1944.135210  	97.530647 
1945.572117  	97.481458 
1947.009024  	97.563609 
1948.445931  	97.630216 
1949.882838  	97.467157 
1951.319745  	97.408004 
1952.756652  	97.564938 
1954.193559  	97.689302 
1955.630466  	97.604437 
1957.067373  	97.574856 
1958.504280  	97.729713 
1959.941187  	97.647085 
1961.378094  	97.462212 
1962.815001  	97.581541 
1964.251908  	97.614177 
1965.688816  	97.517383 
1967.125723  	97.532455 
1968.562630  	97.425799 
1969.999537  	97.418759 
1971.436444  	97.709943 
1972.873351  	97.830895 
1974.310258  	97.713615 
1975.747165  	97.519750 
1977.184072  	97.492335 
1978.620979  	97.531725 
1980.057886  	97.297369 
1981.494793  	97.070709 
1982.931700  	97.103274 
1984.368607  	97.371794 
1985.805514  	97.356778 
1987.242421  	97.440362 
1988.679328  	97.493309 
1990.116235  	97.666237 
1991.553142  	97.529471 
1992.990049  	97.296721 
1994.426956  	97.343311 
1995.863863  	97.521797 
1997.300770  	97.694385 
1998.737677  	97.606300 
2000.174584  	97.506511 
2001.611491  	97.653164 
2003.048398  	97.704734 
2004.485305  	97.839435 
2005.922212  	97.939234 
2007.359119  	97.547565 
2008.796026  	97.414771 
2010.232933  	97.553762 
2011.669840  	97.548133 
2013.106747  	97.816765 
2014.543654  	97.780095 
2015.980562  	97.333514 
2017.417469  	97.456336 
2018.854376  	97.708439 
2020.291283  	97.638191 
2021.728190  	97.727411 
2023.165097  	97.792115 
2024.602004  	97.671146 
2026.038911  	97.512923 
2027.475818  	97.520132 
2028.912725  	97.774621 
2030.349632  	97.794710 
2031.786539  	97.470615 
2033.223446  	97.240284 
2034.660353  	97.319585 
2036.097260  	97.542736 
2037.534167  	97.468917 
2038.971074  	97.211954 
2040.407981  	97.240589 
2041.844888  	97.290777 
2043.281795  	97.214836 
2044.718702  	97.316337 
2046.155609  	97.496616 
2047.592516  	97.559248 
2049.029423  	97.293771 
2050.466330  	96.905245 
2051.903237  	96.952348 
2053.340144  	97.226323 
2054.777051  	97.352280 
2056.213958  	97.466477 
2057.650865  	97.517042 
2059.087772  	97.454047 
2060.524679  	97.409347 
2061.961586  	97.359271 
2063.398493  	97.347071 
2064.835401  	97.375423 
2066.272308  	97.373132 
2067.709215  	97.430158 
2069.146122  	97.399463 
2070.583029  	97.207512 
2072.019936  	97.174369 
2073.456843  	97.276412 
2074.893750  	97.308874 
2076.330657  	97.313328 
2077.767564  	97.218592 
2079.204471  	97.095679 
2080.641378  	97.150057 
2082.078285  	97.202542 
2083.515192  	97.165294 
2084.952099  	97.184654 
2086.389006  	97.196894 
2087.825913  	97.174803 
2089.262820  	97.183844 
2090.699727  	97.237397 
2092.136634  	97.386807 
2093.573541  	97.443777 
2095.010448  	97.207830 
2096.447355  	96.999547 
2097.884262  	96.991496 
2099.321169  	96.966919 
2100.758076  	96.922937 
2102.194983  	96.930039 
2103.631890  	96.956840 
2105.068797  	96.980968 
2106.505704  	96.969565 
2107.942611  	96.996084 
2109.379518  	97.072667 
2110.816425  	97.038006 
2112.253332  	96.953409 
2113.690239  	96.969038 
2115.127147  	97.007633 
2116.564054  	96.988920 
2118.000961  	96.946943 
2119.437868  	96.955181 
2120.874775  	97.042667 
2122.311682  	97.132215 
2123.748589  	97.196472 
2125.185496  	97.287171 
2126.622403  	97.359735 
2128.059310  	97.342918 
2129.496217  	97.256915 
2130.933124  	97.250989 
2132.370031  	97.301999 
2133.806938  	97.151429 
2135.243845  	96.930291 
2136.680752  	96.960498 
2138.117659  	97.110460 
2139.554566  	97.195936 
2140.991473  	97.191775 
2142.428380  	97.037973 
2143.865287  	96.922022 
2145.302194  	97.055752 
2146.739101  	97.261391 
2148.176008  	97.291145 
2149.612915  	97.169350 
2151.049822  	97.100137 
2152.486729  	97.053326 
2153.923636  	96.975017 
2155.360543  	97.206026 
2156.797450  	97.669540 
2158.234357  	97.426002 
2159.671264  	96.612484 
2161.108171  	96.533603 
2162.545078  	96.801597 
2163.981985  	96.753489 
2165.418893  	96.862657 
2166.855800  	97.038756 
2168.292707  	96.946601 
2169.729614  	97.005835 
2171.166521  	97.199191 
2172.603428  	97.200244 
2174.040335  	97.216408 
2175.477242  	97.178271 
2176.914149  	97.037417 
2178.351056  	97.183537 
2179.787963  	97.440578 
2181.224870  	97.468577 
2182.661777  	97.303759 
2184.098684  	96.976297 
2185.535591  	96.782080 
2186.972498  	96.898389 
2188.409405  	97.058745 
2189.846312  	97.006652 
2191.283219  	96.862591 
2192.720126  	96.951502 
2194.157033  	97.121671 
2195.593940  	97.051557 
2197.030847  	97.028215 
2198.467754  	97.142843 
2199.904661  	97.107202 
2201.341568  	97.075298 
2202.778475  	97.166121 
2204.215382  	97.273043 
2205.652289  	97.346638 
2207.089196  	97.231946 
2208.526103  	97.120160 
2209.963010  	97.250155 
2211.399917  	97.322204 
2212.836824  	97.280120 
2214.273732  	97.346830 
2215.710639  	97.383955 
2217.147546  	97.307319 
2218.584453  	97.284793 
2220.021360  	97.369596 
2221.458267  	97.417754 
2222.895174  	97.362876 
2224.332081  	97.333482 
2225.768988  	97.332447 
2227.205895  	97.342682 
2228.642802  	97.462940 
2230.079709  	97.543397 
2231.516616  	97.464735 
2232.953523  	97.481347 
2234.390430  	97.620072 
2235.827337  	97.596524 
2237.264244  	97.449270 
2238.701151  	97.401820 
2240.138058  	97.349453 
2241.574965  	97.272231 
2243.011872  	97.410825 
2244.448779  	97.594168 
2245.885686  	97.557565 
2247.322593  	97.472910 
2248.759500  	97.443657 
2250.196407  	97.483790 
2251.633314  	97.564294 
2253.070221  	97.448660 
2254.507128  	97.285838 
2255.944035  	97.335002 
2257.380942  	97.395893 
2258.817849  	97.423576 
2260.254756  	97.515715 
2261.691663  	97.583062 
2263.128570  	97.634532 
2264.565478  	97.659624 
2266.002385  	97.637046 
2267.439292  	97.614330 
2268.876199  	97.524048 
2270.313106  	97.420111 
2271.750013  	97.414920 
2273.186920  	97.466612 
2274.623827  	97.526132 
2276.060734  	97.518796 
2277.497641  	97.459801 
2278.934548  	97.457753 
2280.371455  	97.437511 
2281.808362  	97.378013 
2283.245269  	97.370641 
2284.682176  	97.382261 
2286.119083  	97.389503 
2287.555990  	97.401857 
2288.992897  	97.420172 
2290.429804  	97.457856 
2291.866711  	97.461915 
2293.303618  	97.443376 
2294.740525  	97.469359 
2296.177432  	97.493430 
2297.614339  	97.486004 
2299.051246  	97.484578 
2300.488153  	97.495233 
2301.925060  	97.480851 
2303.361967  	97.428512 
2304.798874  	97.424793 
2306.235781  	97.475902 
2307.672688  	97.474114 
2309.109595  	97.447126 
2310.546502  	97.440260 
2311.983409  	97.426803 
2313.420317  	97.422637 
2314.857224  	97.405906 
2316.294131  	97.374748 
2317.731038  	97.345422 
2319.167945  	97.322287 
2320.604852  	97.369922 
2322.041759  	97.346980 
2323.478666  	97.193205 
2324.915573  	97.274033 
2326.352480  	97.558688 
2327.789387  	97.696806 
2329.226294  	97.718798 
2330.663201  	97.696566 
2332.100108  	97.625704 
2333.537015  	97.621843 
2334.973922  	97.601427 
2336.410829  	97.539390 
2337.847736  	97.591686 
2339.284643  	97.673578 
2340.721550  	97.692840 
2342.158457  	97.675594 
2343.595364  	97.594616 
2345.032271  	97.544171 
2346.469178  	97.587848 
2347.906085  	97.637038 
2349.342992  	97.680989 
2350.779899  	97.708044 
2352.216806  	97.720226 
2353.653713  	97.729378 
2355.090620  	97.756648 
2356.527527  	97.786191 
2357.964434  	97.779517 
2359.401341  	97.739140 
2360.838248  	97.706743 
2362.275155  	97.727382 
2363.712063  	97.734161 
2365.148970  	97.708456 
2366.585877  	97.717696 
2368.022784  	97.748010 
2369.459691  	97.737162 
2370.896598  	97.712444 
2372.333505  	97.702440 
2373.770412  	97.693423 
2375.207319  	97.708648 
2376.644226  	97.720596 
2378.081133  	97.716811 
2379.518040  	97.748924 
2380.954947  	97.789181 
2382.391854  	97.797424 
2383.828761  	97.798498 
2385.265668  	97.809934 
2386.702575  	97.821666 
2388.139482  	97.838909 
2389.576389  	97.827828 
2391.013296  	97.788994 
2392.450203  	97.790107 
2393.887110  	97.803692 
2395.324017  	97.792776 
2396.760924  	97.802635 
2398.197831  	97.804091 
2399.634738  	97.777809 
2401.071645  	97.781718 
2402.508552  	97.777735 
2403.945459  	97.760618 
2405.382366  	97.794231 
2406.819273  	97.788523 
2408.256180  	97.711481 
2409.693087  	97.680533 
2411.129994  	97.673870 
2412.566901  	97.655307 
2414.003809  	97.664942 
2415.440716  	97.663647 
2416.877623  	97.662701 
2418.314530  	97.704885 
2419.751437  	97.727438 
2421.188344  	97.720593 
2422.625251  	97.718273 
2424.062158  	97.710572 
2425.499065  	97.709120 
2426.935972  	97.690838 
2428.372879  	97.652117 
2429.809786  	97.659825 
2431.246693  	97.686705 
2432.683600  	97.691114 
2434.120507  	97.710909 
2435.557414  	97.709864 
2436.994321  	97.673477 
2438.431228  	97.676326 
2439.868135  	97.691947 
2441.305042  	97.671057 
2442.741949  	97.653419 
2444.178856  	97.637310 
2445.615763  	97.612038 
2447.052670  	97.609409 
2448.489577  	97.621188 
2449.926484  	97.642186 
2451.363391  	97.661376 
2452.800298  	97.641977 
2454.237205  	97.624971 
2455.674112  	97.639133 
2457.111019  	97.648197 
2458.547926  	97.672824 
2459.984833  	97.699592 
2461.421740  	97.700040 
2462.858648  	97.750930 
2464.295555  	97.817585 
2465.732462  	97.780239 
2467.169369  	97.719724 
2468.606276  	97.732104 
2470.043183  	97.733252 
2471.480090  	97.670410 
2472.916997  	97.639135 
2474.353904  	97.688819 
2475.790811  	97.707533 
2477.227718  	97.657465 
2478.664625  	97.639936 
2480.101532  	97.654734 
2481.538439  	97.666095 
2482.975346  	97.698394 
2484.412253  	97.709599 
2485.849160  	97.685578 
2487.286067  	97.674651 
2488.722974  	97.661930 
2490.159881  	97.658009 
2491.596788  	97.696135 
2493.033695  	97.722819 
2494.470602  	97.714555 
2495.907509  	97.729570 
2497.344416  	97.753062 
2498.781323  	97.730096 
2500.218230  	97.714371 
2501.655137  	97.719008 
2503.092044  	97.687253 
2504.528951  	97.720097 
2505.965858  	97.819773 
2507.402765  	97.804633 
2508.839672  	97.759824 
2510.276579  	97.785997 
2511.713486  	97.748686 
2513.150394  	97.712112 
2514.587301  	97.750868 
2516.024208  	97.745781 
2517.461115  	97.738526 
2518.898022  	97.776769 
2520.334929  	97.793451 
2521.771836  	97.803929 
2523.208743  	97.789006 
2524.645650  	97.752638 
2526.082557  	97.768200 
2527.519464  	97.793716 
2528.956371  	97.800939 
2530.393278  	97.817478 
2531.830185  	97.810039 
2533.267092  	97.781879 
2534.703999  	97.770190 
2536.140906  	97.792336 
2537.577813  	97.822245 
2539.014720  	97.790748 
2540.451627  	97.746881 
2541.888534  	97.774513 
2543.325441  	97.805327 
2544.762348  	97.791712 
2546.199255  	97.779016 
2547.636162  	97.766537 
2549.073069  	97.744036 
2550.509976  	97.743936 
2551.946883  	97.770726 
2553.383790  	97.796198 
2554.820697  	97.808653 
2556.257604  	97.784448 
2557.694511  	97.727829 
2559.131418  	97.722558 
2560.568325  	97.764717 
2562.005232  	97.780206 
2563.442140  	97.797898 
2564.879047  	97.822156 
2566.315954  	97.816871 
2567.752861  	97.811065 
2569.189768  	97.800657 
2570.626675  	97.802559 
2572.063582  	97.836054 
2573.500489  	97.818652 
2574.937396  	97.777281 
2576.374303  	97.796840 
2577.811210  	97.814999 
2579.248117  	97.801332 
2580.685024  	97.793183 
2582.121931  	97.789195 
2583.558838  	97.789809 
2584.995745  	97.789463 
2586.432652  	97.802848 
2587.869559  	97.833714 
2589.306466  	97.829747 
2590.743373  	97.819199 
2592.180280  	97.851744 
2593.617187  	97.871724 
2595.054094  	97.852096 
2596.491001  	97.834989 
2597.927908  	97.842546 
2599.364815  	97.855376 
2600.801722  	97.849347 
2602.238629  	97.843510 
2603.675536  	97.843460 
2605.112443  	97.827611 
2606.549350  	97.820569 
2607.986257  	97.834355 
2609.423164  	97.835029 
2610.860071  	97.823712 
2612.296979  	97.825588 
2613.733886  	97.821848 
2615.170793  	97.791875 
2616.607700  	97.782901 
2618.044607  	97.800989 
2619.481514  	97.779373 
2620.918421  	97.756700 
2622.355328  	97.783466 
2623.792235  	97.783918 
2625.229142  	97.756796 
2626.666049  	97.772775 
2628.102956  	97.801455 
2629.539863  	97.804729 
2630.976770  	97.800841 
2632.413677  	97.797139 
2633.850584  	97.790659 
2635.287491  	97.791958 
2636.724398  	97.801502 
2638.161305  	97.781252 
2639.598212  	97.737552 
2641.035119  	97.734279 
2642.472026  	97.757973 
2643.908933  	97.765458 
2645.345840  	97.761410 
2646.782747  	97.742788 
2648.219654  	97.736928 
2649.656561  	97.760633 
2651.093468  	97.757839 
2652.530375  	97.732370 
2653.967282  	97.734149 
2655.404189  	97.744824 
2656.841096  	97.738595 
2658.278003  	97.732423 
2659.714910  	97.748667 
2661.151817  	97.768124 
2662.588725  	97.766030 
2664.025632  	97.777130 
2665.462539  	97.798688 
2666.899446  	97.784889 
2668.336353  	97.770432 
2669.773260  	97.775569 
2671.210167  	97.762671 
2672.647074  	97.745438 
2674.083981  	97.738489 
2675.520888  	97.728186 
2676.957795  	97.717083 
2678.394702  	97.708160 
2679.831609  	97.716808 
2681.268516  	97.728784 
2682.705423  	97.702993 
2684.142330  	97.676829 
2685.579237  	97.679481 
2687.016144  	97.669112 
2688.453051  	97.661851 
2689.889958  	97.682620 
2691.326865  	97.681702 
2692.763772  	97.655276 
2694.200679  	97.654923 
2695.637586  	97.667265 
2697.074493  	97.647876 
2698.511400  	97.620482 
2699.948307  	97.626043 
2701.385214  	97.639561 
2702.822121  	97.631676 
2704.259028  	97.618894 
2705.695935  	97.604514 
2707.132842  	97.584775 
2708.569749  	97.580700 
2710.006656  	97.587236 
2711.443564  	97.578116 
2712.880471  	97.561627 
2714.317378  	97.560530 
2715.754285  	97.577999 
2717.191192  	97.595529 
2718.628099  	97.589731 
2720.065006  	97.571850 
2721.501913  	97.565015 
2722.938820  	97.552789 
2724.375727  	97.530893 
2725.812634  	97.530032 
2727.249541  	97.538095 
2728.686448  	97.523301 
2730.123355  	97.509319 
2731.560262  	97.515185 
2732.997169  	97.514664 
2734.434076  	97.511516 
2735.870983  	97.523145 
2737.307890  	97.521357 
2738.744797  	97.509022 
2740.181704  	97.517773 
2741.618611  	97.515923 
2743.055518  	97.497524 
2744.492425  	97.503683 
2745.929332  	97.498959 
2747.366239  	97.467991 
2748.803146  	97.463502 
2750.240053  	97.460770 
2751.676960  	97.438731 
2753.113867  	97.447654 
2754.550774  	97.468013 
2755.987681  	97.455847 
2757.424588  	97.439903 
2758.861495  	97.443239 
2760.298402  	97.449286 
2761.735310  	97.441888 
2763.172217  	97.430019 
2764.609124  	97.427668 
2766.046031  	97.422394 
2767.482938  	97.415760 
2768.919845  	97.420967 
2770.356752  	97.420913 
2771.793659  	97.412098 
2773.230566  	97.406521 
2774.667473  	97.390424 
2776.104380  	97.357038 
2777.541287  	97.330491 
2778.978194  	97.334763 
2780.415101  	97.347463 
2781.852008  	97.325037 
2783.288915  	97.287436 
2784.725822  	97.279905 
2786.162729  	97.290835 
2787.599636  	97.297074 
2789.036543  	97.296664 
2790.473450  	97.279832 
2791.910357  	97.256138 
2793.347264  	97.254867 
2794.784171  	97.260803 
2796.221078  	97.251639 
2797.657985  	97.247343 
2799.094892  	97.231290 
2800.531799  	97.193772 
2801.968706  	97.199739 
2803.405613  	97.227315 
2804.842520  	97.207444 
2806.279427  	97.193245 
2807.716334  	97.202083 
2809.153241  	97.183605 
2810.590148  	97.165342 
2812.027056  	97.161966 
2813.463963  	97.157838 
2814.900870  	97.156362 
2816.337777  	97.138833 
2817.774684  	97.128660 
2819.211591  	97.137772 
2820.648498  	97.116716 
2822.085405  	97.101966 
2823.522312  	97.121516 
2824.959219  	97.107626 
2826.396126  	97.070299 
2827.833033  	97.059045 
2829.269940  	97.062956 
2830.706847  	97.063879 
2832.143754  	97.044343 
2833.580661  	97.012586 
2835.017568  	96.993624 
2836.454475  	96.983165 
2837.891382  	96.980610 
2839.328289  	96.977581 
2840.765196  	96.961203 
2842.202103  	96.941838 
2843.639010  	96.913038 
2845.075917  	96.879618 
2846.512824  	96.864918 
2847.949731  	96.857445 
2849.386638  	96.843777 
2850.823545  	96.823074 
2852.260452  	96.803564 
2853.697359  	96.802789 
2855.134266  	96.803969 
2856.571173  	96.789657 
2858.008080  	96.766863 
2859.444987  	96.741773 
2860.881895  	96.727302 
2862.318802  	96.709819 
2863.755709  	96.693702 
2865.192616  	96.717802 
2866.629523  	96.730120 
2868.066430  	96.687778 
2869.503337  	96.654945 
2870.940244  	96.644804 
2872.377151  	96.631907 
2873.814058  	96.623865 
2875.250965  	96.619623 
2876.687872  	96.620869 
2878.124779  	96.603379 
2879.561686  	96.564182 
2880.998593  	96.557742 
2882.435500  	96.562553 
2883.872407  	96.546765 
2885.309314  	96.531149 
2886.746221  	96.488601 
2888.183128  	96.446008 
2889.620035  	96.455958 
2891.056942  	96.456576 
2892.493849  	96.415435 
2893.930756  	96.361549 
2895.367663  	96.320082 
2896.804570  	96.331235 
2898.241477  	96.353291 
2899.678384  	96.326141 
2901.115291  	96.281309 
2902.552198  	96.235018 
2903.989105  	96.201438 
2905.426012  	96.189873 
2906.862919  	96.159408 
2908.299826  	96.138133 
2909.736733  	96.141210 
2911.173641  	96.104049 
2912.610548  	96.056871 
2914.047455  	96.041860 
2915.484362  	96.014444 
2916.921269  	95.971909 
2918.358176  	95.931570 
2919.795083  	95.896499 
2921.231990  	95.882862 
2922.668897  	95.861805 
2924.105804  	95.807477 
2925.542711  	95.760689 
2926.979618  	95.747162 
2928.416525  	95.734684 
2929.853432  	95.700290 
2931.290339  	95.676681 
2932.727246  	95.685113 
2934.164153  	95.688815 
2935.601060  	95.662463 
2937.037967  	95.622864 
2938.474874  	95.595165 
2939.911781  	95.575647 
2941.348688  	95.534169 
2942.785595  	95.482079 
2944.222502  	95.455963 
2945.659409  	95.437959 
2947.096316  	95.393423 
2948.533223  	95.342709 
2949.970130  	95.329588 
2951.407037  	95.330532 
2952.843944  	95.288503 
2954.280851  	95.224602 
2955.717758  	95.175284 
2957.154665  	95.138207 
2958.591572  	95.126382 
2960.028479  	95.121715 
2961.465387  	95.092622 
2962.902294  	95.051893 
2964.339201  	95.004883 
2965.776108  	94.963178 
2967.213015  	94.922698 
2968.649922  	94.851870 
2970.086829  	94.793533 
2971.523736  	94.780786 
2972.960643  	94.774095 
2974.397550  	94.756338 
2975.834457  	94.701811 
2977.271364  	94.618303 
2978.708271  	94.566282 
2980.145178  	94.526879 
2981.582085  	94.476331 
2983.018992  	94.432462 
2984.455899  	94.374316 
2985.892806  	94.318508 
2987.329713  	94.296020 
2988.766620  	94.281992 
2990.203527  	94.258220 
2991.640434  	94.210196 
2993.077341  	94.140676 
2994.514248  	94.081879 
2995.951155  	94.038358 
2997.388062  	93.996343 
2998.824969  	93.943778 
3000.261876  	93.888006 
3001.698783  	93.826104 
3003.135690  	93.733704 
3004.572597  	93.668057 
3006.009504  	93.651265 
3007.446411  	93.596806 
3008.883318  	93.531976 
3010.320226  	93.504791 
3011.757133  	93.457425 
3013.194040  	93.385041 
3014.630947  	93.300591 
3016.067854  	93.216580 
3017.504761  	93.171834 
3018.941668  	93.133240 
3020.378575  	93.080963 
3021.815482  	93.016224 
3023.252389  	92.923912 
3024.689296  	92.864383 
3026.126203  	92.835243 
3027.563110  	92.774924 
3029.000017  	92.711016 
3030.436924  	92.637060 
3031.873831  	92.555493 
3033.310738  	92.502205 
3034.747645  	92.423216 
3036.184552  	92.332436 
3037.621459  	92.269456 
3039.058366  	92.178610 
3040.495273  	92.090006 
3041.932180  	92.043784 
3043.369087  	91.984024 
3044.805994  	91.898254 
3046.242901  	91.806596 
3047.679808  	91.718936 
3049.116715  	91.638607 
3050.553622  	91.566663 
3051.990529  	91.514545 
3053.427436  	91.440954 
3054.864343  	91.320821 
3056.301250  	91.212061 
3057.738157  	91.146373 
3059.175064  	91.098318 
3060.611972  	91.020337 
3062.048879  	90.926596 
3063.485786  	90.870135 
3064.922693  	90.791618 
3066.359600  	90.674889 
3067.796507  	90.599587 
3069.233414  	90.537312 
3070.670321  	90.464011 
3072.107228  	90.393609 
3073.544135  	90.303601 
3074.981042  	90.217996 
3076.417949  	90.118984 
3077.854856  	89.996543 
3079.291763  	89.916338 
3080.728670  	89.838362 
3082.165577  	89.734570 
3083.602484  	89.640600 
3085.039391  	89.526586 
3086.476298  	89.430951 
3087.913205  	89.374562 
3089.350112  	89.278712 
3090.787019  	89.153797 
3092.223926  	89.043560 
3093.660833  	88.962359 
3095.097740  	88.895333 
3096.534647  	88.784305 
3097.971554  	88.663575 
3099.408461  	88.576144 
3100.845368  	88.482388 
3102.282275  	88.374435 
3103.719182  	88.254149 
3105.156089  	88.147708 
3106.592996  	88.066137 
3108.029903  	87.961890 
3109.466811  	87.870723 
3110.903718  	87.795611 
3112.340625  	87.666137 
3113.777532  	87.517816 
3115.214439  	87.391803 
3116.651346  	87.304719 
3118.088253  	87.236844 
3119.525160  	87.105042 
3120.962067  	86.972089 
3122.398974  	86.895145 
3123.835881  	86.798832 
3125.272788  	86.715928 
3126.709695  	86.649282 
3128.146602  	86.523539 
3129.583509  	86.393267 
3131.020416  	86.298906 
3132.457323  	86.184832 
3133.894230  	86.034724 
3135.331137  	85.919763 
3136.768044  	85.857175 
3138.204951  	85.743067 
3139.641858  	85.609678 
3141.078765  	85.530433 
3142.515672  	85.407432 
3143.952579  	85.265533 
3145.389486  	85.186931 
3146.826393  	85.117763 
3148.263300  	85.048426 
3149.700207  	84.958939 
3151.137114  	84.844462 
3152.574021  	84.737463 
3154.010928  	84.602220 
3155.447835  	84.513524 
3156.884742  	84.480784 
3158.321649  	84.355785 
3159.758557  	84.205133 
3161.195464  	84.110043 
3162.632371  	84.014976 
3164.069278  	83.915298 
3165.506185  	83.779777 
3166.943092  	83.659468 
3168.379999  	83.602672 
3169.816906  	83.505006 
3171.253813  	83.394196 
3172.690720  	83.303406 
3174.127627  	83.186566 
3175.564534  	83.124973 
3177.001441  	83.108618 
3178.438348  	83.047989 
3179.875255  	82.958582 
3181.312162  	82.874239 
3182.749069  	82.798285 
3184.185976  	82.681844 
3185.622883  	82.569991 
3187.059790  	82.515453 
3188.496697  	82.393615 
3189.933604  	82.263977 
3191.370511  	82.218886 
3192.807418  	82.130807 
3194.244325  	82.050268 
3195.681232  	82.012161 
3197.118139  	81.931760 
3198.555046  	81.872920 
3199.991953  	81.802325 
3201.428860  	81.716617 
3202.865767  	81.675470 
3204.302674  	81.584621 
3205.739581  	81.525601 
3207.176488  	81.528653 
3208.613395  	81.442904 
3210.050303  	81.364877 
3211.487210  	81.325992 
3212.924117  	81.267469 
3214.361024  	81.250589 
3215.797931  	81.198132 
3217.234838  	81.132854 
3218.671745  	81.111326 
3220.108652  	81.023999 
3221.545559  	80.948097 
3222.982466  	80.905594 
3224.419373  	80.820120 
3225.856280  	80.793817 
3227.293187  	80.780215 
3228.730094  	80.720131 
3230.167001  	80.702063 
3231.603908  	80.694184 
3233.040815  	80.673633 
3234.477722  	80.630685 
3235.914629  	80.568726 
3237.351536  	80.568221 
3238.788443  	80.579541 
3240.225350  	80.545913 
3241.662257  	80.471576 
3243.099164  	80.392815 
3244.536071  	80.424163 
3245.972978  	80.470263 
3247.409885  	80.429610 
3248.846792  	80.404306 
3250.283699  	80.355522 
3251.720606  	80.303777 
3253.157513  	80.296694 
3254.594420  	80.245075 
3256.031327  	80.248401 
3257.468234  	80.281666 
3258.905142  	80.213898 
3260.342049  	80.196404 
3261.778956  	80.225468 
3263.215863  	80.209116 
3264.652770  	80.206018 
3266.089677  	80.191520 
3267.526584  	80.203478 
3268.963491  	80.225216 
3270.400398  	80.184495 
3271.837305  	80.184559 
3273.274212  	80.177222 
3274.711119  	80.133241 
3276.148026  	80.174207 
3277.584933  	80.192662 
3279.021840  	80.146945 
3280.458747  	80.116513 
3281.895654  	80.094200 
3283.332561  	80.114073 
3284.769468  	80.106903 
3286.206375  	80.060127 
3287.643282  	80.065957 
3289.080189  	80.054193 
3290.517096  	80.063061 
3291.954003  	80.101352 
3293.390910  	80.057443 
3294.827817  	80.053551 
3296.264724  	80.083190 
3297.701631  	80.061346 
3299.138538  	80.083809 
3300.575445  	80.058652 
3302.012352  	79.983571 
3303.449259  	79.995120 
3304.886166  	79.995215 
3306.323073  	79.978553 
3307.759980  	79.987307 
3309.196888  	79.958932 
3310.633795  	79.945111 
3312.070702  	79.944888 
3313.507609  	79.926004 
3314.944516  	79.906631 
3316.381423  	79.884786 
3317.818330  	79.919003 
3319.255237  	79.956196 
3320.692144  	79.935500 
3322.129051  	79.949691 
3323.565958  	79.980258 
3325.002865  	79.985907 
3326.439772  	79.944255 
3327.876679  	79.856649 
3329.313586  	79.876184 
3330.750493  	79.952833 
3332.187400  	79.964185 
3333.624307  	79.982603 
3335.061214  	79.957026 
3336.498121  	79.901345 
3337.935028  	79.899810 
3339.371935  	79.871604 
3340.808842  	79.858042 
3342.245749  	79.869882 
3343.682656  	79.870621 
3345.119563  	79.940278 
3346.556470  	79.978181 
3347.993377  	79.957785 
3349.430284  	79.967170 
3350.867191  	79.928168 
3352.304098  	79.914269 
3353.741005  	79.962854 
3355.177912  	79.958233 
3356.614819  	79.957382 
3358.051726  	79.976700 
3359.488634  	80.011273 
3360.925541  	80.031343 
3362.362448  	79.965176 
3363.799355  	80.004478 
3365.236262  	80.110055 
3366.673169  	80.060232 
3368.110076  	80.048660 
3369.546983  	80.115109 
3370.983890  	80.133722 
3372.420797  	80.173225 
3373.857704  	80.195162 
3375.294611  	80.221253 
3376.731518  	80.256561 
3378.168425  	80.240903 
3379.605332  	80.310868 
3381.042239  	80.380182 
3382.479146  	80.362147 
3383.916053  	80.409384 
3385.352960  	80.425690 
3386.789867  	80.438223 
3388.226774  	80.552682 
3389.663681  	80.601070 
3391.100588  	80.634989 
3392.537495  	80.677606 
3393.974402  	80.641437 
3395.411309  	80.706573 
3396.848216  	80.830613 
3398.285123  	80.862282 
3399.722030  	80.881821 
3401.158937  	80.908956 
3402.595844  	80.945444 
3404.032751  	80.986634 
3405.469658  	81.040915 
3406.906565  	81.140221 
3408.343473  	81.195813 
3409.780380  	81.274212 
3411.217287  	81.393763 
3412.654194  	81.397093 
3414.091101  	81.423971 
3415.528008  	81.533453 
3416.964915  	81.606680 
3418.401822  	81.698223 
3419.838729  	81.736272 
3421.275636  	81.717852 
3422.712543  	81.748493 
3424.149450  	81.772948 
3425.586357  	81.884450 
3427.023264  	82.015735 
3428.460171  	82.014195 
3429.897078  	82.109211 
3431.333985  	82.278576 
3432.770892  	82.329988 
3434.207799  	82.375486 
3435.644706  	82.451828 
3437.081613  	82.548981 
3438.518520  	82.640220 
3439.955427  	82.686670 
3441.392334  	82.770416 
3442.829241  	82.829458 
3444.266148  	82.896783 
3445.703055  	83.043558 
3447.139962  	83.051037 
3448.576869  	83.016033 
3450.013776  	83.149780 
3451.450683  	83.287044 
3452.887590  	83.390390 
3454.324497  	83.449215 
3455.761404  	83.493719 
3457.198311  	83.612354 
3458.635219  	83.655687 
3460.072126  	83.701766 
3461.509033  	83.864064 
3462.945940  	83.923194 
3464.382847  	83.948061 
3465.819754  	84.046153 
3467.256661  	84.117131 
3468.693568  	84.211495 
3470.130475  	84.289175 
3471.567382  	84.356863 
3473.004289  	84.493022 
3474.441196  	84.576668 
3475.878103  	84.647478 
3477.315010  	84.754579 
3478.751917  	84.799793 
3480.188824  	84.844028 
3481.625731  	84.875323 
3483.062638  	84.891013 
3484.499545  	85.014961 
3485.936452  	85.157418 
3487.373359  	85.231120 
3488.810266  	85.272322 
3490.247173  	85.353957 
3491.684080  	85.508562 
3493.120987  	85.605496 
3494.557894  	85.654318 
3495.994801  	85.755033 
3497.431708  	85.842852 
3498.868615  	85.941869 
3500.305522  	86.020798 
3501.742429  	86.005239 
3503.179336  	86.026416 
3504.616243  	86.103270 
3506.053150  	86.214279 
3507.490058  	86.394187 
3508.926965  	86.511185 
3510.363872  	86.545728 
3511.800779  	86.586440 
3513.237686  	86.643023 
3514.674593  	86.752042 
3516.111500  	86.845368 
3517.548407  	86.894663 
3518.985314  	86.984410 
3520.422221  	87.101210 
3521.859128  	87.231123 
3523.296035  	87.325707 
3524.732942  	87.381942 
3526.169849  	87.465723 
3527.606756  	87.473543 
3529.043663  	87.507976 
3530.480570  	87.696274 
3531.917477  	87.846008 
3533.354384  	87.990817 
3534.791291  	88.097078 
3536.228198  	88.023719 
3537.665105  	88.042720 
3539.102012  	88.239234 
3540.538919  	88.425700 
3541.975826  	88.554299 
3543.412733  	88.619317 
3544.849640  	88.665592 
3546.286547  	88.757206 
3547.723454  	88.803482 
3549.160361  	88.862464 
3550.597268  	88.972664 
3552.034175  	89.049706 
3553.471082  	89.143809 
3554.907989  	89.268252 
3556.344896  	89.345946 
3557.781804  	89.400954 
3559.218711  	89.379214 
3560.655618  	89.438565 
3562.092525  	89.656703 
3563.529432  	89.841799 
3564.966339  	89.929193 
3566.403246  	89.932570 
3567.840153  	89.861677 
3569.277060  	89.905048 
3570.713967  	89.957628 
3572.150874  	90.021797 
3573.587781  	90.170900 
3575.024688  	90.372901 
3576.461595  	90.509572 
3577.898502  	90.480429 
3579.335409  	90.432442 
3580.772316  	90.529943 
3582.209223  	90.658703 
3583.646130  	90.793098 
3585.083037  	90.971011 
3586.519944  	91.058772 
3587.956851  	91.034892 
3589.393758  	91.101519 
3590.830665  	91.164187 
3592.267572  	91.209897 
3593.704479  	91.311282 
3595.141386  	91.453862 
3596.578293  	91.579254 
3598.015200  	91.667843 
3599.452107  	91.726357 
3600.889014  	91.703220 
3602.325921  	91.689992 
3603.762828  	91.796264 
3605.199735  	91.947814 
3606.636642  	92.145942 
3608.073550  	92.300596 
3609.510457  	92.235409 
3610.947364  	92.186868 
3612.384271  	92.271529 
3613.821178  	92.380921 
3615.258085  	92.549913 
3616.694992  	92.730247 
3618.131899  	92.846342 
3619.568806  	92.741156 
3621.005713  	92.552997 
3622.442620  	92.665199 
3623.879527  	92.946743 
3625.316434  	93.108569 
3626.753341  	93.201202 
3628.190248  	93.337440 
3629.627155  	93.212597 
3631.064062  	93.263256 
3632.500969  	93.303961 
3633.937876  	93.335019 
3635.374783  	93.480908 
3636.811690  	93.719154 
3638.248597  	93.827797 
3639.685504  	93.759797 
3641.122411  	93.740635 
3642.559318  	93.844425 
3643.996225  	94.097497 
3645.433132  	94.456074 
3646.870039  	94.657236 
3648.306946  	94.551471 
3649.743853  	94.574637 
3651.180760  	94.527487 
3652.617667  	94.404304 
3654.054574  	94.444595 
3655.491481  	94.633476 
3656.928389  	94.845419 
3658.365296  	95.010373 
3659.802203  	94.988191 
3661.239110  	94.934369 
3662.676017  	95.043646 
3664.112924  	95.269984 
3665.549831  	95.362968 
3666.986738  	95.419409 
3668.423645  	95.558482 
3669.860552  	95.707594 
3671.297459  	95.703985 
3672.734366  	95.707179 
3674.171273  	95.822283 
3675.608180  	95.866766 
3677.045087  	95.885494 
3678.481994  	95.958339 
3679.918901  	95.967884 
3681.355808  	95.952662 
3682.792715  	95.978945 
3684.229622  	96.018048 
3685.666529  	96.121544 
3687.103436  	96.304801 
3688.540343  	96.374117 
3689.977250  	96.304606 
3691.414157  	96.330316 
3692.851064  	96.347491 
3694.287971  	96.368659 
3695.724878  	96.399979 
3697.161785  	96.453554 
3698.598692  	96.559722 
3700.035599  	96.662839 
3701.472506  	96.664221 
3702.909413  	96.586114 
3704.346320  	96.572588 
3705.783227  	96.663959 
3707.220135  	96.776423 
3708.657042  	96.793314 
3710.093949  	96.775870 
3711.530856  	96.814880 
3712.967763  	96.834453 
3714.404670  	96.813476 
3715.841577  	96.777694 
3717.278484  	96.776649 
3718.715391  	96.923010 
3720.152298  	97.150626 
3721.589205  	97.202083 
3723.026112  	97.107792 
3724.463019  	97.058394 
3725.899926  	97.030161 
3727.336833  	96.974695 
3728.773740  	97.011140 
3730.210647  	97.178764 
3731.647554  	97.430441 
3733.084461  	97.501754 
3734.521368  	97.320534 
3735.958275  	96.993759 
3737.395182  	97.047439 
3738.832089  	97.388878 
3740.268996  	97.467282 
3741.705903  	97.302524 
3743.142810  	97.301911 
3744.579717  	97.369487 
3746.016624  	97.386532 
3747.453531  	97.408986 
3748.890438  	97.419144 
3750.327345  	97.340659 
3751.764252  	97.289435 
3753.201159  	97.278813 
3754.638066  	97.376531 
3756.074973  	97.409651 
3757.511881  	97.308331 
3758.948788  	97.256960 
3760.385695  	97.349733 
3761.822602  	97.308991 
3763.259509  	97.276544 
3764.696416  	97.354631 
3766.133323  	97.334872 
3767.570230  	97.373480 
3769.007137  	97.473021 
3770.444044  	97.411852 
3771.880951  	97.290289 
3773.317858  	97.195532 
3774.754765  	97.206063 
3776.191672  	97.283439 
3777.628579  	97.296475 
3779.065486  	97.246695 
3780.502393  	97.249609 
3781.939300  	97.281452 
3783.376207  	97.272200 
3784.813114  	97.224831 
3786.250021  	97.170477 
3787.686928  	97.208937 
3789.123835  	97.284078 
3790.560742  	97.304945 
3791.997649  	97.215673 
3793.434556  	97.129698 
3794.871463  	97.283979 
3796.308370  	97.501265 
3797.745277  	97.349633 
3799.182184  	97.142220 
3800.619091  	97.195366 
3802.055998  	97.290743 
3803.492905  	97.346383 
3804.929812  	97.284014 
3806.366720  	97.321165 
3807.803627  	97.322247 
3809.240534  	97.320472 
3810.677441  	97.289192 
3812.114348  	97.188353 
3813.551255  	97.163610 
3814.988162  	97.377301 
3816.425069  	97.397585 
3817.861976  	97.281953 
3819.298883  	97.373278 
3820.735790  	97.382598 
3822.172697  	97.055934 
3823.609604  	97.182539 
3825.046511  	97.377460 
3826.483418  	97.453952 
3827.920325  	97.278195 
3829.357232  	97.198559 
3830.794139  	97.334801 
3832.231046  	97.456971 
3833.667953  	97.425543 
3835.104860  	97.322666 
3836.541767  	97.253751 
3837.978674  	97.282709 
3839.415581  	97.371398 
3840.852488  	97.460315 
3842.289395  	97.461506 
3843.726302  	97.326439 
3845.163209  	97.131940 
3846.600116  	97.066496 
3848.037023  	97.234815 
3849.473930  	97.512960 
3850.910837  	97.608041 
3852.347744  	97.523985 
3853.784651  	97.123987 
3855.221558  	97.102124 
3856.658466  	97.175515 
3858.095373  	97.210078 
3859.532280  	97.312711 
3860.969187  	97.384156 
3862.406094  	97.357942 
3863.843001  	97.367171 
3865.279908  	97.376748 
3866.716815  	97.293093 
3868.153722  	97.369363 
3869.590629  	97.528374 
3871.027536  	97.355702 
3872.464443  	97.332180 
3873.901350  	97.405230 
3875.338257  	97.285967 
3876.775164  	97.131572 
3878.212071  	97.184932 
3879.648978  	97.474256 
3881.085885  	97.626007 
3882.522792  	97.359792 
3883.959699  	97.225591 
3885.396606  	97.361321 
3886.833513  	97.339360 
3888.270420  	97.260560 
3889.707327  	97.280556 
3891.144234  	97.327998 
3892.581141  	97.337705 
3894.018048  	97.259291 
3895.454955  	97.144091 
3896.891862  	97.208239 
3898.328769  	97.326855 
3899.765676  	97.308267 
3901.202583  	97.300129 
3902.639490  	97.326614 
3904.076397  	97.256311 
3905.513305  	97.152226 
3906.950212  	97.096311 
3908.387119  	97.116441 
3909.824026  	97.200982 
3911.260933  	97.246627 
3912.697840  	97.240106 
3914.134747  	97.245570 
3915.571654  	97.236770 
3917.008561  	97.214128 
3918.445468  	97.234676 
3919.882375  	97.247403 
3921.319282  	97.206599 
3922.756189  	97.169226 
3924.193096  	97.133812 
3925.630003  	97.096019 
3927.066910  	97.122448 
3928.503817  	97.148673 
3929.940724  	97.142053 
3931.377631  	97.137288 
3932.814538  	97.122006 
3934.251445  	97.109302 
3935.688352  	97.092337 
3937.125259  	97.069022 
3938.562166  	97.043454 
3939.999073  	97.033481 
3941.435980  	97.026036 
3942.872887  	97.048623 
3944.309794  	97.068428 
3945.746701  	97.041124 
3947.183608  	97.056790 
3948.620515  	97.106581 
3950.057422  	97.064526 
3951.494329  	96.987215 
3952.931236  	96.995575 
3954.368143  	97.029733 
3955.805051  	97.007358 
3957.241958  	96.981687 
3958.678865  	96.985366 
3960.115772  	97.024778 
3961.552679  	97.042361 
3962.989586  	97.003983 
3964.426493  	96.963546 
3965.863400  	96.978791 
3967.300307  	96.987324 
3968.737214  	96.971655 
3970.174121  	96.973153 
3971.611028  	96.969977 
3973.047935  	96.959247 
3974.484842  	96.944764 
3975.921749  	96.905608 
3977.358656  	96.895119 
3978.795563  	96.954250 
3980.232470  	97.005804 
3981.669377  	96.981379 
3983.106284  	96.940765 
3984.543191  	96.957849 
3985.980098  	96.986761 
3987.417005  	96.983848 
3988.853912  	96.972195 
3990.290819  	96.938899 
3991.727726  	96.896145 
3993.164633  	96.902093 
3994.601540  	96.941204 
3996.038447  	96.980366 
3997.475354  	96.994323 
3998.912261  	96.939088 
4000.349168  	96.870765 