##TITLE=No Description
##DATA TYPE=INFRARED SPECTRUM
##XUNITS=1/CM
##YUNITS=%T
399.460154  	31.712470 
400.897061  	30.639955 
402.333968  	31.894813 
403.770875  	31.758409 
405.207782  	30.740903 
406.644689  	32.075930 
408.081596  	31.299450 
409.518503  	31.239198 
410.955410  	32.729405 
412.392317  	31.459918 
413.829224  	31.078090 
415.266131  	31.127363 
416.703038  	30.379825 
418.139945  	31.828968 
419.576852  	31.128399 
421.013759  	30.347178 
422.450666  	31.465385 
423.887574  	31.503667 
425.324481  	31.440211 
426.761388  	31.033023 
428.198295  	30.604247 
429.635202  	31.475755 
431.072109  	31.206964 
432.509016  	31.310466 
433.945923  	32.324609 
435.382830  	31.780885 
436.819737  	31.572350 
438.256644  	31.248142 
439.693551  	30.574176 
441.130458  	31.583858 
442.567365  	32.014402 
444.004272  	31.933442 
445.441179  	32.545036 
446.878086  	31.997681 
448.314993  	31.910694 
449.751900  	32.054855 
451.188807  	31.787882 
452.625714  	32.678795 
454.062621  	32.735672 
455.499528  	32.365517 
456.936435  	32.966263 
458.373342  	32.643992 
459.810249  	32.244567 
461.247156  	31.999171 
462.684063  	31.827260 
464.120970  	32.826095 
465.557877  	32.974462 
466.994784  	32.771295 
468.431691  	33.344572 
469.868598  	32.851855 
471.305505  	32.659648 
472.742413  	33.337902 
474.179320  	32.988594 
475.616227  	32.930197 
477.053134  	33.086880 
478.490041  	33.062740 
479.926948  	33.436715 
481.363855  	33.358689 
482.800762  	33.047630 
484.237669  	33.230975 
485.674576  	33.411007 
487.111483  	33.570053 
488.548390  	33.660676 
489.985297  	33.907343 
491.422204  	34.082804 
492.859111  	33.724038 
494.296018  	33.762223 
495.732925  	33.972011 
497.169832  	33.899310 
498.606739  	34.194444 
500.043646  	34.137075 
501.480553  	33.776196 
502.917460  	34.042760 
504.354367  	34.254916 
505.791274  	34.430141 
507.228181  	34.536153 
508.665088  	34.288466 
510.101995  	34.435696 
511.538902  	34.615509 
512.975809  	34.523604 
514.412716  	34.561706 
515.849623  	34.607442 
517.286530  	34.942892 
518.723437  	35.152270 
520.160344  	34.948737 
521.597251  	35.164123 
523.034159  	35.304637 
524.471066  	35.151610 
525.907973  	35.322876 
527.344880  	35.404351 
528.781787  	35.451800 
530.218694  	35.541676 
531.655601  	35.344955 
533.092508  	35.463221 
534.529415  	35.668765 
535.966322  	35.610003 
537.403229  	35.883409 
538.840136  	36.135148 
540.277043  	36.180249 
541.713950  	36.294847 
543.150857  	36.265184 
544.587764  	36.342152 
546.024671  	36.511738 
547.461578  	36.498037 
548.898485  	36.609484 
550.335392  	36.700868 
551.772299  	36.686538 
553.209206  	36.788149 
554.646113  	36.948772 
556.083020  	37.195345 
557.519927  	37.319465 
558.956834  	37.349066 
560.393741  	37.603705 
561.830648  	37.712634 
563.267555  	37.657399 
564.704462  	37.773704 
566.141369  	37.851164 
567.578276  	37.961343 
569.015183  	38.133193 
570.452090  	38.204264 
571.888997  	38.360720 
573.325905  	38.500893 
574.762812  	38.648197 
576.199719  	38.924247 
577.636626  	38.980150 
579.073533  	38.935016 
580.510440  	39.030662 
581.947347  	39.106100 
583.384254  	39.232961 
584.821161  	39.474022 
586.258068  	39.723827 
587.694975  	39.819730 
589.131882  	39.712941 
590.568789  	39.789942 
592.005696  	40.053823 
593.442603  	40.130648 
594.879510  	40.218161 
596.316417  	40.349882 
597.753324  	40.396409 
599.190231  	40.576677 
600.627138  	40.843203 
602.064045  	41.035515 
603.500952  	41.181203 
604.937859  	41.268352 
606.374766  	41.358226 
607.811673  	41.455548 
609.248580  	41.559357 
610.685487  	41.699048 
612.122394  	41.776982 
613.559301  	41.875244 
614.996208  	42.076083 
616.433115  	42.270590 
617.870022  	42.436544 
619.306929  	42.547762 
620.743836  	42.691836 
622.180744  	42.914934 
623.617651  	43.058819 
625.054558  	43.221837 
626.491465  	43.400565 
627.928372  	43.503351 
629.365279  	43.653498 
630.802186  	43.905090 
632.239093  	44.070569 
633.676000  	44.270812 
635.112907  	44.450735 
636.549814  	44.569585 
637.986721  	44.738347 
639.423628  	44.893046 
640.860535  	45.053361 
642.297442  	45.227832 
643.734349  	45.298671 
645.171256  	45.400332 
646.608163  	45.595996 
648.045070  	45.735653 
649.481977  	45.861376 
650.918884  	45.996172 
652.355791  	46.131160 
653.792698  	46.320117 
655.229605  	46.507978 
656.666512  	46.660686 
658.103419  	46.805424 
659.540326  	46.968288 
660.977233  	47.142385 
662.414140  	47.308103 
663.851047  	47.487349 
665.287954  	47.605363 
666.724861  	47.701802 
668.161768  	47.963925 
669.598675  	48.242801 
671.035582  	48.348800 
672.472490  	48.501167 
673.909397  	48.781000 
675.346304  	49.065832 
676.783211  	49.303809 
678.220118  	49.497243 
679.657025  	49.740598 
681.093932  	50.037369 
682.530839  	50.294765 
683.967746  	50.562467 
685.404653  	50.828007 
686.841560  	51.068209 
688.278467  	51.375189 
689.715374  	51.626223 
691.152281  	51.782682 
692.589188  	51.951184 
694.026095  	52.125156 
695.463002  	52.346775 
696.899909  	52.580239 
698.336816  	52.745635 
699.773723  	52.925723 
701.210630  	53.097091 
702.647537  	53.241824 
704.084444  	53.475301 
705.521351  	53.702563 
706.958258  	53.826340 
708.395165  	53.948255 
709.832072  	54.141908 
711.268979  	54.347196 
712.705886  	54.533318 
714.142793  	54.694035 
715.579700  	54.854143 
717.016607  	55.012513 
718.453514  	55.153668 
719.890421  	55.313835 
721.327328  	55.472586 
722.764236  	55.640717 
724.201143  	55.850933 
725.638050  	56.023889 
727.074957  	56.114904 
728.511864  	56.268750 
729.948771  	56.475062 
731.385678  	56.664852 
732.822585  	56.862280 
734.259492  	57.057188 
735.696399  	57.267819 
737.133306  	57.508417 
738.570213  	57.701349 
740.007120  	57.877563 
741.444027  	58.122450 
742.880934  	58.368018 
744.317841  	58.556029 
745.754748  	58.712564 
747.191655  	58.888634 
748.628562  	59.138870 
750.065469  	59.393636 
751.502376  	59.576987 
752.939283  	59.763148 
754.376190  	59.989467 
755.813097  	60.217754 
757.250004  	60.422717 
758.686911  	60.608727 
760.123818  	60.828881 
761.560725  	61.067814 
762.997632  	61.286182 
764.434539  	61.513616 
765.871446  	61.708308 
767.308353  	61.887096 
768.745260  	62.144303 
770.182167  	62.387878 
771.619075  	62.569800 
773.055982  	62.802693 
774.492889  	63.060486 
775.929796  	63.273644 
777.366703  	63.463202 
778.803610  	63.665565 
780.240517  	63.911160 
781.677424  	64.168841 
783.114331  	64.398345 
784.551238  	64.621244 
785.988145  	64.863090 
787.425052  	65.107073 
788.861959  	65.308309 
790.298866  	65.532020 
791.735773  	65.821669 
793.172680  	66.045884 
794.609587  	66.256653 
796.046494  	66.572900 
797.483401  	66.848191 
798.920308  	67.059272 
800.357215  	67.314552 
801.794122  	67.605687 
803.231029  	67.948850 
804.667936  	68.281446 
806.104843  	68.572910 
807.541750  	68.915962 
808.978657  	69.221403 
810.415564  	69.487292 
811.852471  	69.807582 
813.289378  	70.037004 
814.726285  	70.189668 
816.163192  	70.389664 
817.600099  	70.555051 
819.037006  	70.697772 
820.473913  	70.858194 
821.910821  	70.995849 
823.347728  	71.143279 
824.784635  	71.313085 
826.221542  	71.537290 
827.658449  	71.816899 
829.095356  	72.045563 
830.532263  	72.268446 
831.969170  	72.558719 
833.406077  	72.824569 
834.842984  	73.039956 
836.279891  	73.279163 
837.716798  	73.557958 
839.153705  	73.804938 
840.590612  	74.017119 
842.027519  	74.270600 
843.464426  	74.522351 
844.901333  	74.766643 
846.338240  	75.052746 
847.775147  	75.299631 
849.212054  	75.537024 
850.648961  	75.825112 
852.085868  	76.084256 
853.522775  	76.339313 
854.959682  	76.593204 
856.396589  	76.816981 
857.833496  	77.082484 
859.270403  	77.349527 
860.707310  	77.608359 
862.144217  	77.888335 
863.581124  	78.087763 
865.018031  	78.258414 
866.454938  	78.463341 
867.891845  	78.611007 
869.328752  	78.744436 
870.765660  	78.928404 
872.202567  	79.125823 
873.639474  	79.287587 
875.076381  	79.411668 
876.513288  	79.596236 
877.950195  	79.823111 
879.387102  	80.026962 
880.824009  	80.271004 
882.260916  	80.502431 
883.697823  	80.700431 
885.134730  	80.945019 
886.571637  	81.177234 
888.008544  	81.421424 
889.445451  	81.713351 
890.882358  	81.976044 
892.319265  	82.259373 
893.756172  	82.551030 
895.193079  	82.802430 
896.629986  	83.106963 
898.066893  	83.463052 
899.503800  	83.841327 
900.940707  	84.231419 
902.377614  	84.601080 
903.814521  	85.034438 
905.251428  	85.545742 
906.688335  	86.075684 
908.125242  	86.594028 
909.562149  	87.014373 
910.999056  	87.364491 
912.435963  	87.640472 
913.872870  	87.767065 
915.309777  	87.841172 
916.746684  	87.888560 
918.183591  	87.932150 
919.620498  	88.016977 
921.057406  	88.010075 
922.494313  	87.963072 
923.931220  	87.939654 
925.368127  	87.811345 
926.805034  	87.672439 
928.241941  	87.561838 
929.678848  	87.394413 
931.115755  	87.293816 
932.552662  	87.284002 
933.989569  	87.303879 
935.426476  	87.357951 
936.863383  	87.384618 
938.300290  	87.434272 
939.737197  	87.532601 
941.174104  	87.595426 
942.611011  	87.700230 
944.047918  	87.883070 
945.484825  	88.102380 
946.921732  	88.368898 
948.358639  	88.611574 
949.795546  	88.836377 
951.232453  	89.073270 
952.669360  	89.245027 
954.106267  	89.378849 
955.543174  	89.496463 
956.980081  	89.558665 
958.416988  	89.561163 
959.853895  	89.483748 
961.290802  	89.393210 
962.727709  	89.352809 
964.164616  	89.307769 
965.601523  	89.230555 
967.038430  	89.152834 
968.475337  	89.143444 
969.912244  	89.188648 
971.349152  	89.218220 
972.786059  	89.308298 
974.222966  	89.447892 
975.659873  	89.537834 
977.096780  	89.646611 
978.533687  	89.748584 
979.970594  	89.783189 
981.407501  	89.830917 
982.844408  	89.882380 
984.281315  	89.920157 
985.718222  	89.939604 
987.155129  	89.924000 
988.592036  	89.970693 
990.028943  	90.048537 
991.465850  	90.084462 
992.902757  	90.173385 
994.339664  	90.272671 
995.776571  	90.302052 
997.213478  	90.332929 
998.650385  	90.387935 
1000.087292  	90.454049 
1001.524199  	90.514757 
1002.961106  	90.553834 
1004.398013  	90.575434 
1005.834920  	90.573795 
1007.271827  	90.610313 
1008.708734  	90.677372 
1010.145641  	90.705263 
1011.582548  	90.758466 
1013.019455  	90.824412 
1014.456362  	90.872539 
1015.893269  	90.963666 
1017.330176  	90.998957 
1018.767083  	90.977642 
1020.203991  	91.048731 
1021.640898  	91.154532 
1023.077805  	91.220623 
1024.514712  	91.259665 
1025.951619  	91.295571 
1027.388526  	91.369788 
1028.825433  	91.431038 
1030.262340  	91.493697 
1031.699247  	91.592603 
1033.136154  	91.638211 
1034.573061  	91.686597 
1036.009968  	91.764986 
1037.446875  	91.779783 
1038.883782  	91.806753 
1040.320689  	91.850852 
1041.757596  	91.846750 
1043.194503  	91.858756 
1044.631410  	91.887073 
1046.068317  	91.926297 
1047.505224  	91.978853 
1048.942131  	92.005748 
1050.379038  	92.038150 
1051.815945  	92.056354 
1053.252852  	92.078655 
1054.689759  	92.165527 
1056.126666  	92.228283 
1057.563573  	92.254605 
1059.000480  	92.254009 
1060.437387  	92.193087 
1061.874294  	92.174328 
1063.311201  	92.172082 
1064.748108  	92.154342 
1066.185015  	92.215236 
1067.621922  	92.256283 
1069.058829  	92.282097 
1070.495737  	92.384835 
1071.932644  	92.445829 
1073.369551  	92.493077 
1074.806458  	92.559782 
1076.243365  	92.579083 
1077.680272  	92.654049 
1079.117179  	92.736922 
1080.554086  	92.723653 
1081.990993  	92.699868 
1083.427900  	92.675282 
1084.864807  	92.664880 
1086.301714  	92.673065 
1087.738621  	92.650966 
1089.175528  	92.663458 
1090.612435  	92.693745 
1092.049342  	92.711835 
1093.486249  	92.760633 
1094.923156  	92.753724 
1096.360063  	92.696204 
1097.796970  	92.657214 
1099.233877  	92.601930 
1100.670784  	92.561536 
1102.107691  	92.530260 
1103.544598  	92.493060 
1104.981505  	92.498992 
1106.418412  	92.492705 
1107.855319  	92.481685 
1109.292226  	92.507125 
1110.729133  	92.514417 
1112.166040  	92.532606 
1113.602947  	92.541408 
1115.039854  	92.520954 
1116.476761  	92.570491 
1117.913668  	92.624550 
1119.350575  	92.628472 
1120.787483  	92.667401 
1122.224390  	92.720892 
1123.661297  	92.774742 
1125.098204  	92.817700 
1126.535111  	92.829501 
1127.972018  	92.876470 
1129.408925  	92.905269 
1130.845832  	92.857550 
1132.282739  	92.804548 
1133.719646  	92.748583 
1135.156553  	92.689451 
1136.593460  	92.635107 
1138.030367  	92.574627 
1139.467274  	92.553197 
1140.904181  	92.528950 
1142.341088  	92.470882 
1143.777995  	92.455508 
1145.214902  	92.464860 
1146.651809  	92.471251 
1148.088716  	92.481040 
1149.525623  	92.479765 
1150.962530  	92.513236 
1152.399437  	92.551387 
1153.836344  	92.545559 
1155.273251  	92.562511 
1156.710158  	92.595175 
1158.147065  	92.621388 
1159.583972  	92.666020 
1161.020879  	92.689567 
1162.457786  	92.682645 
1163.894693  	92.654430 
1165.331600  	92.605086 
1166.768507  	92.556271 
1168.205414  	92.493012 
1169.642322  	92.441221 
1171.079229  	92.417389 
1172.516136  	92.369597 
1173.953043  	92.335360 
1175.389950  	92.325305 
1176.826857  	92.295364 
1178.263764  	92.301126 
1179.700671  	92.326389 
1181.137578  	92.321231 
1182.574485  	92.340634 
1184.011392  	92.387907 
1185.448299  	92.442219 
1186.885206  	92.493722 
1188.322113  	92.527035 
1189.759020  	92.589884 
1191.195927  	92.673655 
1192.632834  	92.745548 
1194.069741  	92.833286 
1195.506648  	92.911888 
1196.943555  	92.987323 
1198.380462  	93.082911 
1199.817369  	93.150765 
1201.254276  	93.211175 
1202.691183  	93.291136 
1204.128090  	93.359476 
1205.564997  	93.415232 
1207.001904  	93.454293 
1208.438811  	93.498242 
1209.875718  	93.557030 
1211.312625  	93.574666 
1212.749532  	93.561275 
1214.186439  	93.547883 
1215.623346  	93.520538 
1217.060253  	93.501973 
1218.497160  	93.495187 
1219.934068  	93.469073 
1221.370975  	93.435317 
1222.807882  	93.425197 
1224.244789  	93.436419 
1225.681696  	93.426485 
1227.118603  	93.402168 
1228.555510  	93.409351 
1229.992417  	93.416840 
1231.429324  	93.407877 
1232.866231  	93.416159 
1234.303138  	93.426177 
1235.740045  	93.426742 
1237.176952  	93.426408 
1238.613859  	93.425344 
1240.050766  	93.428189 
1241.487673  	93.413574 
1242.924580  	93.389386 
1244.361487  	93.388102 
1245.798394  	93.387697 
1247.235301  	93.377876 
1248.672208  	93.363160 
1250.109115  	93.338115 
1251.546022  	93.335289 
1252.982929  	93.355090 
1254.419836  	93.362102 
1255.856743  	93.366127 
1257.293650  	93.377251 
1258.730557  	93.387653 
1260.167464  	93.399543 
1261.604371  	93.418055 
1263.041278  	93.442314 
1264.478185  	93.466849 
1265.915092  	93.495298 
1267.351999  	93.513469 
1268.788907  	93.520117 
1270.225814  	93.552451 
1271.662721  	93.587627 
1273.099628  	93.605149 
1274.536535  	93.639005 
1275.973442  	93.666764 
1277.410349  	93.694865 
1278.847256  	93.752555 
1280.284163  	93.796699 
1281.721070  	93.842039 
1283.157977  	93.906999 
1284.594884  	93.954346 
1286.031791  	94.010106 
1287.468698  	94.070679 
1288.905605  	94.108541 
1290.342512  	94.154684 
1291.779419  	94.206008 
1293.216326  	94.261996 
1294.653233  	94.318247 
1296.090140  	94.349788 
1297.527047  	94.394479 
1298.963954  	94.453407 
1300.400861  	94.507812 
1301.837768  	94.584960 
1303.274675  	94.656491 
1304.711582  	94.730390 
1306.148489  	94.845141 
1307.585396  	94.966771 
1309.022303  	95.106845 
1310.459210  	95.267545 
1311.896117  	95.435146 
1313.333024  	95.642432 
1314.769931  	95.835709 
1316.206838  	95.992939 
1317.643745  	96.164376 
1319.080653  	96.351511 
1320.517560  	96.558417 
1321.954467  	96.746618 
1323.391374  	96.915778 
1324.828281  	97.135870 
1326.265188  	97.372036 
1327.702095  	97.586038 
1329.139002  	97.766036 
1330.575909  	97.864369 
1332.012816  	97.891185 
1333.449723  	97.872560 
1334.886630  	97.844039 
1336.323537  	97.796137 
1337.760444  	97.753080 
1339.197351  	97.736255 
1340.634258  	97.749841 
1342.071165  	97.805399 
1343.508072  	97.925152 
1344.944979  	98.133281 
1346.381886  	98.359267 
1347.818793  	98.645789 
1349.255700  	98.962093 
1350.692607  	99.303979 
1352.129514  	99.671485 
1353.566421  	99.992104 
1355.003328  	100.300250 
1356.440235  	100.585185 
1357.877142  	100.818166 
1359.314049  	101.045343 
1360.750956  	101.205010 
1362.187863  	101.328640 
1363.624770  	101.423126 
1365.061677  	101.488453 
1366.498584  	101.589935 
1367.935491  	101.556830 
1369.372399  	101.462835 
1370.809306  	101.464714 
1372.246213  	101.517868 
1373.683120  	101.585114 
1375.120027  	101.705388 
1376.556934  	101.910415 
1377.993841  	102.186732 
1379.430748  	102.460537 
1380.867655  	102.763519 
1382.304562  	102.801699 
1383.741469  	102.820849 
1385.178376  	103.172286 
1386.615283  	103.512239 
1388.052190  	103.698738 
1389.489097  	103.997258 
1390.926004  	104.267772 
1392.362911  	104.373509 
1393.799818  	104.542864 
1395.236725  	104.445475 
1396.673632  	104.321640 
1398.110539  	104.300687 
1399.547446  	103.917174 
1400.984353  	103.650814 
1402.421260  	103.500665 
1403.858167  	103.154209 
1405.295074  	102.883018 
1406.731981  	102.631626 
1408.168888  	102.460600 
1409.605795  	102.369109 
1411.042702  	102.118704 
1412.479609  	101.856011 
1413.916516  	101.566242 
1415.353423  	101.033643 
1416.790330  	100.513409 
1418.227238  	99.915210 
1419.664145  	99.069357 
1421.101052  	98.526177 
1422.537959  	98.161273 
1423.974866  	97.870107 
1425.411773  	97.561297 
1426.848680  	97.317640 
1428.285587  	97.078440 
1429.722494  	96.835575 
1431.159401  	96.610444 
1432.596308  	96.417553 
1434.033215  	96.223267 
1435.470122  	96.061354 
1436.907029  	95.847014 
1438.343936  	95.632383 
1439.780843  	95.551843 
1441.217750  	95.404134 
1442.654657  	95.205702 
1444.091564  	95.057905 
1445.528471  	94.889022 
1446.965378  	94.744272 
1448.402285  	94.582864 
1449.839192  	94.388609 
1451.276099  	94.300767 
1452.713006  	94.177380 
1454.149913  	94.067005 
1455.586820  	94.062947 
1457.023727  	93.886766 
1458.460634  	93.591956 
1459.897541  	93.466156 
1461.334448  	93.348236 
1462.771355  	93.345471 
1464.208262  	93.307879 
1465.645169  	93.152669 
1467.082076  	93.082181 
1468.518984  	92.959848 
1469.955891  	92.840013 
1471.392798  	92.798088 
1472.829705  	92.646842 
1474.266612  	92.502077 
1475.703519  	92.395671 
1477.140426  	92.209001 
1478.577333  	92.128107 
1480.014240  	92.054062 
1481.451147  	91.942015 
1482.888054  	91.886135 
1484.324961  	91.830677 
1485.761868  	91.797484 
1487.198775  	91.758853 
1488.635682  	91.686082 
1490.072589  	91.624559 
1491.509496  	91.546046 
1492.946403  	91.522164 
1494.383310  	91.537114 
1495.820217  	91.487029 
1497.257124  	91.419623 
1498.694031  	91.372790 
1500.130938  	91.317535 
1501.567845  	91.299498 
1503.004752  	91.295556 
1504.441659  	91.286582 
1505.878566  	91.318868 
1507.315473  	91.235957 
1508.752380  	91.103812 
1510.189287  	91.098246 
1511.626194  	91.059112 
1513.063101  	91.024444 
1514.500008  	90.990603 
1515.936915  	90.969655 
1517.373822  	90.942930 
1518.810730  	90.907922 
1520.247637  	90.889070 
1521.684544  	90.842089 
1523.121451  	90.734010 
1524.558358  	90.730392 
1525.995265  	90.709436 
1527.432172  	90.646684 
1528.869079  	90.607937 
1530.305986  	90.570819 
1531.742893  	90.555951 
1533.179800  	90.568748 
1534.616707  	90.501688 
1536.053614  	90.479693 
1537.490521  	90.459528 
1538.927428  	90.409167 
1540.364335  	90.338903 
1541.801242  	90.276124 
1543.238149  	90.241655 
1544.675056  	90.211447 
1546.111963  	90.155955 
1547.548870  	90.134679 
1548.985777  	90.114360 
1550.422684  	90.068554 
1551.859591  	90.166082 
1553.296498  	90.263813 
1554.733405  	90.275764 
1556.170312  	90.311149 
1557.607219  	90.411341 
1559.044126  	90.484336 
1560.481033  	90.441337 
1561.917940  	90.651510 
1563.354847  	90.817755 
1564.791754  	90.996657 
1566.228661  	91.283442 
1567.665569  	91.514685 
1569.102476  	91.759704 
1570.539383  	92.075309 
1571.976290  	92.280006 
1573.413197  	92.516127 
1574.850104  	92.745975 
1576.287011  	92.962685 
1577.723918  	93.216381 
1579.160825  	93.444151 
1580.597732  	93.650729 
1582.034639  	93.783332 
1583.471546  	93.892448 
1584.908453  	93.963870 
1586.345360  	94.026522 
1587.782267  	94.070734 
1589.219174  	93.960367 
1590.656081  	93.821697 
1592.092988  	93.648409 
1593.529895  	93.486512 
1594.966802  	93.327650 
1596.403709  	93.134435 
1597.840616  	92.950960 
1599.277523  	92.741855 
1600.714430  	92.497646 
1602.151337  	92.318097 
1603.588244  	92.167342 
1605.025151  	91.991952 
1606.462058  	91.883577 
1607.898965  	91.753113 
1609.335872  	91.640173 
1610.772779  	91.591489 
1612.209686  	91.491690 
1613.646593  	91.378314 
1615.083500  	91.232390 
1616.520407  	91.033426 
1617.957315  	90.849826 
1619.394222  	90.648451 
1620.831129  	90.406972 
1622.268036  	90.133285 
1623.704943  	89.762765 
1625.141850  	89.406698 
1626.578757  	89.141087 
1628.015664  	88.801841 
1629.452571  	88.473175 
1630.889478  	88.171346 
1632.326385  	87.764277 
1633.763292  	87.439451 
1635.200199  	87.096904 
1636.637106  	86.617158 
1638.074013  	86.400884 
1639.510920  	86.063785 
1640.947827  	85.735942 
1642.384734  	85.590096 
1643.821641  	85.390963 
1645.258548  	85.251860 
1646.695455  	85.152194 
1648.132362  	84.913843 
1649.569269  	84.872684 
1651.006176  	84.768310 
1652.443083  	84.611981 
1653.879990  	84.697098 
1655.316897  	84.516352 
1656.753804  	84.521931 
1658.190711  	84.588986 
1659.627618  	84.572408 
1661.064525  	84.649118 
1662.501432  	84.776696 
1663.938339  	84.883569 
1665.375246  	85.019999 
1666.812154  	85.057237 
1668.249061  	85.106527 
1669.685968  	85.237522 
1671.122875  	85.293896 
1672.559782  	85.476446 
1673.996689  	85.623104 
1675.433596  	85.722170 
1676.870503  	85.960534 
1678.307410  	86.051153 
1679.744317  	86.161601 
1681.181224  	86.444827 
1682.618131  	86.572504 
1684.055038  	86.793967 
1685.491945  	87.137414 
1686.928852  	87.213614 
1688.365759  	87.458857 
1689.802666  	87.732353 
1691.239573  	87.999734 
1692.676480  	88.333546 
1694.113387  	88.528364 
1695.550294  	88.772042 
1696.987201  	89.115820 
1698.424108  	89.264211 
1699.861015  	89.471578 
1701.297922  	89.748716 
1702.734829  	89.922221 
1704.171736  	90.169587 
1705.608643  	90.388890 
1707.045550  	90.615873 
1708.482457  	90.870701 
1709.919364  	91.055835 
1711.356271  	91.276113 
1712.793178  	91.500730 
1714.230085  	91.683413 
1715.666992  	91.931943 
1717.103900  	92.108611 
1718.540807  	92.198104 
1719.977714  	92.413453 
1721.414621  	92.595315 
1722.851528  	92.779255 
1724.288435  	92.984010 
1725.725342  	93.136697 
1727.162249  	93.320478 
1728.599156  	93.432304 
1730.036063  	93.529140 
1731.472970  	93.647949 
1732.909877  	93.726525 
1734.346784  	93.807571 
1735.783691  	93.881628 
1737.220598  	93.974754 
1738.657505  	94.112957 
1740.094412  	94.203600 
1741.531319  	94.261930 
1742.968226  	94.369692 
1744.405133  	94.439557 
1745.842040  	94.530600 
1747.278947  	94.643646 
1748.715854  	94.679245 
1750.152761  	94.759739 
1751.589668  	94.823312 
1753.026575  	94.869018 
1754.463482  	95.009578 
1755.900389  	95.084698 
1757.337296  	95.119536 
1758.774203  	95.215074 
1760.211110  	95.264718 
1761.648017  	95.323896 
1763.084924  	95.378977 
1764.521831  	95.416134 
1765.958738  	95.501931 
1767.395646  	95.530330 
1768.832553  	95.549698 
1770.269460  	95.658311 
1771.706367  	95.705513 
1773.143274  	95.691688 
1774.580181  	95.727109 
1776.017088  	95.740821 
1777.453995  	95.788437 
1778.890902  	95.833870 
1780.327809  	95.852863 
1781.764716  	95.897952 
1783.201623  	95.938745 
1784.638530  	95.975008 
1786.075437  	96.016226 
1787.512344  	96.054311 
1788.949251  	96.099961 
1790.386158  	96.132973 
1791.823065  	96.161418 
1793.259972  	96.179435 
1794.696879  	96.156024 
1796.133786  	96.175584 
1797.570693  	96.207332 
1799.007600  	96.233174 
1800.444507  	96.274414 
1801.881414  	96.276009 
1803.318321  	96.276445 
1804.755228  	96.327864 
1806.192135  	96.361272 
1807.629042  	96.395824 
1809.065949  	96.438502 
1810.502856  	96.448958 
1811.939763  	96.480750 
1813.376670  	96.500942 
1814.813577  	96.535661 
1816.250485  	96.575953 
1817.687392  	96.554722 
1819.124299  	96.551151 
1820.561206  	96.607519 
1821.998113  	96.598521 
1823.435020  	96.597279 
1824.871927  	96.588911 
1826.308834  	96.579481 
1827.745741  	96.666171 
1829.182648  	96.702445 
1830.619555  	96.651125 
1832.056462  	96.647301 
1833.493369  	96.662619 
1834.930276  	96.702396 
1836.367183  	96.746512 
1837.804090  	96.767968 
1839.240997  	96.815239 
1840.677904  	96.825045 
1842.114811  	96.824973 
1843.551718  	96.861071 
1844.988625  	96.810863 
1846.425532  	96.815819 
1847.862439  	96.862262 
1849.299346  	96.839665 
1850.736253  	96.854730 
1852.173160  	96.855738 
1853.610067  	96.827728 
1855.046974  	96.876590 
1856.483881  	96.889269 
1857.920788  	96.870824 
1859.357695  	96.906426 
1860.794602  	96.903508 
1862.231509  	96.923968 
1863.668416  	96.956741 
1865.105323  	96.959984 
1866.542231  	96.995632 
1867.979138  	97.005992 
1869.416045  	96.982965 
1870.852952  	96.986145 
1872.289859  	96.998649 
1873.726766  	97.011608 
1875.163673  	96.945761 
1876.600580  	96.899386 
1878.037487  	96.948465 
1879.474394  	96.974484 
1880.911301  	96.984107 
1882.348208  	96.994937 
1883.785115  	96.972347 
1885.222022  	96.971662 
1886.658929  	96.996257 
1888.095836  	97.011003 
1889.532743  	97.057471 
1890.969650  	97.032612 
1892.406557  	97.039276 
1893.843464  	97.087002 
1895.280371  	97.054873 
1896.717278  	97.063239 
1898.154185  	97.128029 
1899.591092  	97.082130 
1901.027999  	97.073322 
1902.464906  	97.072944 
1903.901813  	97.069118 
1905.338720  	97.080268 
1906.775627  	97.043659 
1908.212534  	97.049718 
1909.649441  	97.073180 
1911.086348  	97.063239 
1912.523255  	97.076989 
1913.960162  	97.005839 
1915.397069  	96.986213 
1916.833977  	97.037369 
1918.270884  	97.011228 
1919.707791  	96.939107 
1921.144698  	96.911618 
1922.581605  	96.961764 
1924.018512  	97.063276 
1925.455419  	97.110009 
1926.892326  	97.105372 
1928.329233  	97.105243 
1929.766140  	96.982038 
1931.203047  	96.982170 
1932.639954  	96.966300 
1934.076861  	96.881543 
1935.513768  	97.053597 
1936.950675  	97.078710 
1938.387582  	96.975477 
1939.824489  	97.130087 
1941.261396  	97.123704 
1942.698303  	97.059257 
1944.135210  	97.162870 
1945.572117  	97.120774 
1947.009024  	97.110355 
1948.445931  	97.059784 
1949.882838  	96.863084 
1951.319745  	96.887025 
1952.756652  	96.888234 
1954.193559  	96.932880 
1955.630466  	97.067074 
1957.067373  	97.084306 
1958.504280  	97.165701 
1959.941187  	97.220793 
1961.378094  	97.072808 
1962.815001  	97.014740 
1964.251908  	97.017510 
1965.688816  	97.028519 
1967.125723  	97.112866 
1968.562630  	97.099901 
1969.999537  	97.035487 
1971.436444  	96.909917 
1972.873351  	96.849094 
1974.310258  	97.047701 
1975.747165  	97.051507 
1977.184072  	96.885417 
1978.620979  	96.751667 
1980.057886  	96.595698 
1981.494793  	96.625110 
1982.931700  	96.621366 
1984.368607  	96.560081 
1985.805514  	96.664141 
1987.242421  	96.595519 
1988.679328  	96.517869 
1990.116235  	96.677152 
1991.553142  	96.622592 
1992.990049  	96.444866 
1994.426956  	96.434390 
1995.863863  	96.404884 
1997.300770  	96.508930 
1998.737677  	96.671208 
2000.174584  	96.520395 
2001.611491  	96.367182 
2003.048398  	96.329229 
2004.485305  	96.515531 
2005.922212  	96.752564 
2007.359119  	96.588757 
2008.796026  	96.377196 
2010.232933  	96.230471 
2011.669840  	96.207986 
2013.106747  	96.363324 
2014.543654  	96.230053 
2015.980562  	96.129763 
2017.417469  	96.255786 
2018.854376  	96.121568 
2020.291283  	96.081329 
2021.728190  	96.185130 
2023.165097  	96.154716 
2024.602004  	96.178294 
2026.038911  	96.147847 
2027.475818  	96.241576 
2028.912725  	96.452049 
2030.349632  	96.370058 
2031.786539  	96.282918 
2033.223446  	96.065087 
2034.660353  	95.756222 
2036.097260  	95.756638 
2037.534167  	95.755297 
2038.971074  	95.866601 
2040.407981  	96.104684 
2041.844888  	95.927694 
2043.281795  	95.754285 
2044.718702  	95.824012 
2046.155609  	95.996595 
2047.592516  	96.266696 
2049.029423  	95.962314 
2050.466330  	95.441670 
2051.903237  	95.490313 
2053.340144  	95.512061 
2054.777051  	95.363201 
2056.213958  	95.492856 
2057.650865  	95.634146 
2059.087772  	95.653424 
2060.524679  	95.632036 
2061.961586  	95.537993 
2063.398493  	95.472142 
2064.835401  	95.385438 
2066.272308  	95.309687 
2067.709215  	95.405586 
2069.146122  	95.520287 
2070.583029  	95.516929 
2072.019936  	95.431557 
2073.456843  	95.371574 
2074.893750  	95.426541 
2076.330657  	95.476075 
2077.767564  	95.425180 
2079.204471  	95.352817 
2080.641378  	95.332174 
2082.078285  	95.346083 
2083.515192  	95.340733 
2084.952099  	95.346316 
2086.389006  	95.368588 
2087.825913  	95.360498 
2089.262820  	95.371605 
2090.699727  	95.420029 
2092.136634  	95.536057 
2093.573541  	95.683028 
2095.010448  	95.638098 
2096.447355  	95.493896 
2097.884262  	95.441565 
2099.321169  	95.397584 
2100.758076  	95.409956 
2102.194983  	95.424489 
2103.631890  	95.353137 
2105.068797  	95.329740 
2106.505704  	95.293104 
2107.942611  	95.274061 
2109.379518  	95.342331 
2110.816425  	95.280268 
2112.253332  	95.219224 
2113.690239  	95.347225 
2115.127147  	95.444189 
2116.564054  	95.449858 
2118.000961  	95.443730 
2119.437868  	95.481552 
2120.874775  	95.496507 
2122.311682  	95.360579 
2123.748589  	95.402111 
2125.185496  	95.704815 
2126.622403  	95.830007 
2128.059310  	95.813353 
2129.496217  	95.789162 
2130.933124  	95.801438 
2132.370031  	95.922879 
2133.806938  	95.818774 
2135.243845  	95.666402 
2136.680752  	95.780611 
2138.117659  	95.750733 
2139.554566  	95.798571 
2140.991473  	95.968384 
2142.428380  	95.799212 
2143.865287  	95.776408 
2145.302194  	95.876257 
2146.739101  	95.800464 
2148.176008  	96.075044 
2149.612915  	96.266860 
2151.049822  	96.104597 
2152.486729  	96.307323 
2153.923636  	96.691898 
2155.360543  	96.941467 
2156.797450  	96.926493 
2158.234357  	96.349837 
2159.671264  	95.674896 
2161.108171  	95.606705 
2162.545078  	95.841008 
2163.981985  	95.705570 
2165.418893  	95.481267 
2166.855800  	95.830256 
2168.292707  	96.046809 
2169.729614  	95.821965 
2171.166521  	95.888627 
2172.603428  	95.946684 
2174.040335  	95.888388 
2175.477242  	96.049203 
2176.914149  	95.970359 
2178.351056  	95.858641 
2179.787963  	96.059581 
2181.224870  	96.183264 
2182.661777  	96.243129 
2184.098684  	96.107802 
2185.535591  	95.773388 
2186.972498  	95.770316 
2188.409405  	95.961838 
2189.846312  	95.984394 
2191.283219  	95.966763 
2192.720126  	96.014823 
2194.157033  	96.006372 
2195.593940  	95.780754 
2197.030847  	95.649367 
2198.467754  	95.850948 
2199.904661  	96.029075 
2201.341568  	96.134429 
2202.778475  	96.259192 
2204.215382  	96.225319 
2205.652289  	96.127215 
2207.089196  	96.034701 
2208.526103  	96.009304 
2209.963010  	96.119547 
2211.399917  	96.139576 
2212.836824  	96.100147 
2214.273732  	96.176481 
2215.710639  	96.310759 
2217.147546  	96.437008 
2218.584453  	96.355734 
2220.021360  	96.124414 
2221.458267  	96.032033 
2222.895174  	96.018396 
2224.332081  	96.056000 
2225.768988  	96.141897 
2227.205895  	96.112259 
2228.642802  	96.065597 
2230.079709  	96.116231 
2231.516616  	96.243335 
2232.953523  	96.372706 
2234.390430  	96.340597 
2235.827337  	96.266089 
2237.264244  	96.275174 
2238.701151  	96.288781 
2240.138058  	96.320524 
2241.574965  	96.316538 
2243.011872  	96.321802 
2244.448779  	96.402358 
2245.885686  	96.408729 
2247.322593  	96.458291 
2248.759500  	96.531978 
2250.196407  	96.413763 
2251.633314  	96.409570 
2253.070221  	96.493595 
2254.507128  	96.468259 
2255.944035  	96.487481 
2257.380942  	96.547170 
2258.817849  	96.521016 
2260.254756  	96.540792 
2261.691663  	96.583122 
2263.128570  	96.587859 
2264.565478  	96.595319 
2266.002385  	96.635800 
2267.439292  	96.672668 
2268.876199  	96.638144 
2270.313106  	96.609456 
2271.750013  	96.648865 
2273.186920  	96.640747 
2274.623827  	96.637689 
2276.060734  	96.694435 
2277.497641  	96.730535 
2278.934548  	96.753971 
2280.371455  	96.722007 
2281.808362  	96.664266 
2283.245269  	96.677492 
2284.682176  	96.672338 
2286.119083  	96.637244 
2287.555990  	96.681702 
2288.992897  	96.725334 
2290.429804  	96.747249 
2291.866711  	96.765357 
2293.303618  	96.760399 
2294.740525  	96.751465 
2296.177432  	96.756801 
2297.614339  	96.792190 
2299.051246  	96.835149 
2300.488153  	96.903394 
2301.925060  	96.924526 
2303.361967  	96.928119 
2304.798874  	96.869894 
2306.235781  	96.831119 
2307.672688  	96.864145 
2309.109595  	96.878504 
2310.546502  	96.849566 
2311.983409  	96.873625 
2313.420317  	96.925668 
2314.857224  	96.886022 
2316.294131  	96.857164 
2317.731038  	96.911973 
2319.167945  	96.909421 
2320.604852  	96.887054 
2322.041759  	96.876609 
2323.478666  	96.775450 
2324.915573  	96.779353 
2326.352480  	96.976300 
2327.789387  	97.126616 
2329.226294  	97.163250 
2330.663201  	97.182078 
2332.100108  	97.199292 
2333.537015  	97.194109 
2334.973922  	97.190049 
2336.410829  	97.225049 
2337.847736  	97.238426 
2339.284643  	97.222601 
2340.721550  	97.253291 
2342.158457  	97.247607 
2343.595364  	97.205394 
2345.032271  	97.217893 
2346.469178  	97.205750 
2347.906085  	97.208505 
2349.342992  	97.295902 
2350.779899  	97.368651 
2352.216806  	97.425789 
2353.653713  	97.450829 
2355.090620  	97.447428 
2356.527527  	97.469529 
2357.964434  	97.516336 
2359.401341  	97.491470 
2360.838248  	97.458178 
2362.275155  	97.509481 
2363.712063  	97.558413 
2365.148970  	97.571832 
2366.585877  	97.617043 
2368.022784  	97.674641 
2369.459691  	97.637718 
2370.896598  	97.606851 
2372.333505  	97.640872 
2373.770412  	97.650793 
2375.207319  	97.644325 
2376.644226  	97.651740 
2378.081133  	97.649770 
2379.518040  	97.668946 
2380.954947  	97.695733 
2382.391854  	97.724377 
2383.828761  	97.766902 
2385.265668  	97.791479 
2386.702575  	97.792000 
2388.139482  	97.776787 
2389.576389  	97.777238 
2391.013296  	97.799741 
2392.450203  	97.832526 
2393.887110  	97.832222 
2395.324017  	97.814357 
2396.760924  	97.840851 
2398.197831  	97.884830 
2399.634738  	97.894056 
2401.071645  	97.898828 
2402.508552  	97.897811 
2403.945459  	97.902144 
2405.382366  	97.948653 
2406.819273  	97.934540 
2408.256180  	97.867042 
2409.693087  	97.885227 
2411.129994  	97.920937 
2412.566901  	97.923575 
2414.003809  	97.937078 
2415.440716  	97.938939 
2416.877623  	97.981792 
2418.314530  	98.026476 
2419.751437  	97.993678 
2421.188344  	98.010112 
2422.625251  	98.052661 
2424.062158  	98.027003 
2425.499065  	98.025279 
2426.935972  	98.033071 
2428.372879  	98.021781 
2429.809786  	98.035733 
2431.246693  	98.046789 
2432.683600  	98.074769 
2434.120507  	98.108714 
2435.557414  	98.127241 
2436.994321  	98.162950 
2438.431228  	98.130584 
2439.868135  	98.063299 
2441.305042  	98.074682 
2442.741949  	98.078081 
2444.178856  	98.073498 
2445.615763  	98.109008 
2447.052670  	98.121859 
2448.489577  	98.134543 
2449.926484  	98.139134 
2451.363391  	98.129285 
2452.800298  	98.165807 
2454.237205  	98.189644 
2455.674112  	98.188543 
2457.111019  	98.194852 
2458.547926  	98.176834 
2459.984833  	98.208525 
2461.421740  	98.286248 
2462.858648  	98.298664 
2464.295555  	98.282452 
2465.732462  	98.284358 
2467.169369  	98.298669 
2468.606276  	98.308961 
2470.043183  	98.291800 
2471.480090  	98.311067 
2472.916997  	98.356674 
2474.353904  	98.341097 
2475.790811  	98.311716 
2477.227718  	98.310809 
2478.664625  	98.323218 
2480.101532  	98.356506 
2481.538439  	98.373285 
2482.975346  	98.345244 
2484.412253  	98.304645 
2485.849160  	98.298112 
2487.286067  	98.335785 
2488.722974  	98.391761 
2490.159881  	98.458731 
2491.596788  	98.488300 
2493.033695  	98.453465 
2494.470602  	98.438044 
2495.907509  	98.437846 
2497.344416  	98.425794 
2498.781323  	98.457050 
2500.218230  	98.476270 
2501.655137  	98.438944 
2503.092044  	98.419313 
2504.528951  	98.441388 
2505.965858  	98.484172 
2507.402765  	98.514180 
2508.839672  	98.529608 
2510.276579  	98.568031 
2511.713486  	98.585198 
2513.150394  	98.559081 
2514.587301  	98.545038 
2516.024208  	98.549235 
2517.461115  	98.560109 
2518.898022  	98.589295 
2520.334929  	98.643066 
2521.771836  	98.662632 
2523.208743  	98.602680 
2524.645650  	98.566812 
2526.082557  	98.580839 
2527.519464  	98.573790 
2528.956371  	98.602210 
2530.393278  	98.653418 
2531.830185  	98.644438 
2533.267092  	98.612723 
2534.703999  	98.591031 
2536.140906  	98.596046 
2537.577813  	98.613081 
2539.014720  	98.594254 
2540.451627  	98.570744 
2541.888534  	98.551423 
2543.325441  	98.564909 
2544.762348  	98.632329 
2546.199255  	98.640192 
2547.636162  	98.617030 
2549.073069  	98.644063 
2550.509976  	98.654531 
2551.946883  	98.684054 
2553.383790  	98.720929 
2554.820697  	98.692774 
2556.257604  	98.691127 
2557.694511  	98.702875 
2559.131418  	98.679875 
2560.568325  	98.673414 
2562.005232  	98.665912 
2563.442140  	98.700359 
2564.879047  	98.756697 
2566.315954  	98.745463 
2567.752861  	98.760406 
2569.189768  	98.775159 
2570.626675  	98.737169 
2572.063582  	98.783786 
2573.500489  	98.838431 
2574.937396  	98.799772 
2576.374303  	98.771432 
2577.811210  	98.762943 
2579.248117  	98.764549 
2580.685024  	98.764702 
2582.121931  	98.722104 
2583.558838  	98.709567 
2584.995745  	98.734982 
2586.432652  	98.735153 
2587.869559  	98.733476 
2589.306466  	98.755615 
2590.743373  	98.793668 
2592.180280  	98.785333 
2593.617187  	98.733394 
2595.054094  	98.746526 
2596.491001  	98.781531 
2597.927908  	98.767815 
2599.364815  	98.766194 
2600.801722  	98.775766 
2602.238629  	98.772576 
2603.675536  	98.777118 
2605.112443  	98.800671 
2606.549350  	98.830396 
2607.986257  	98.823293 
2609.423164  	98.812444 
2610.860071  	98.819106 
2612.296979  	98.785470 
2613.733886  	98.771207 
2615.170793  	98.815618 
2616.607700  	98.855963 
2618.044607  	98.888703 
2619.481514  	98.872548 
2620.918421  	98.816090 
2622.355328  	98.818109 
2623.792235  	98.834763 
2625.229142  	98.820877 
2626.666049  	98.810513 
2628.102956  	98.797813 
2629.539863  	98.812033 
2630.976770  	98.848343 
2632.413677  	98.855539 
2633.850584  	98.848225 
2635.287491  	98.838554 
2636.724398  	98.843544 
2638.161305  	98.862185 
2639.598212  	98.854567 
2641.035119  	98.851473 
2642.472026  	98.860710 
2643.908933  	98.854165 
2645.345840  	98.863930 
2646.782747  	98.874619 
2648.219654  	98.864175 
2649.656561  	98.863666 
2651.093468  	98.866765 
2652.530375  	98.870055 
2653.967282  	98.876655 
2655.404189  	98.877328 
2656.841096  	98.880028 
2658.278003  	98.877310 
2659.714910  	98.884210 
2661.151817  	98.908292 
2662.588725  	98.918980 
2664.025632  	98.942219 
2665.462539  	98.967993 
2666.899446  	98.952602 
2668.336353  	98.950166 
2669.773260  	98.956003 
2671.210167  	98.922858 
2672.647074  	98.917627 
2674.083981  	98.956604 
2675.520888  	98.969815 
2676.957795  	98.949499 
2678.394702  	98.929376 
2679.831609  	98.922479 
2681.268516  	98.921328 
2682.705423  	98.932648 
2684.142330  	98.950107 
2685.579237  	98.945827 
2687.016144  	98.944009 
2688.453051  	98.951382 
2689.889958  	98.943557 
2691.326865  	98.951958 
2692.763772  	98.966776 
2694.200679  	98.955844 
2695.637586  	98.949286 
2697.074493  	98.946724 
2698.511400  	98.944935 
2699.948307  	98.956567 
2701.385214  	98.957524 
2702.822121  	98.958444 
2704.259028  	98.981006 
2705.695935  	99.012152 
2707.132842  	99.032250 
2708.569749  	99.012430 
2710.006656  	98.976815 
2711.443564  	98.967054 
2712.880471  	98.974767 
2714.317378  	99.001159 
2715.754285  	99.019049 
2717.191192  	99.003663 
2718.628099  	98.996390 
2720.065006  	98.994764 
2721.501913  	98.990882 
2722.938820  	98.998804 
2724.375727  	98.989088 
2725.812634  	98.990288 
2727.249541  	99.023483 
2728.686448  	99.027137 
2730.123355  	99.012499 
2731.560262  	99.010302 
2732.997169  	99.004290 
2734.434076  	99.005960 
2735.870983  	99.004217 
2737.307890  	98.987619 
2738.744797  	98.979951 
2740.181704  	98.971745 
2741.618611  	98.958541 
2743.055518  	98.960188 
2744.492425  	98.966757 
2745.929332  	98.955485 
2747.366239  	98.937341 
2748.803146  	98.938266 
2750.240053  	98.936110 
2751.676960  	98.922283 
2753.113867  	98.933325 
2754.550774  	98.940589 
2755.987681  	98.922354 
2757.424588  	98.920470 
2758.861495  	98.923243 
2760.298402  	98.913757 
2761.735310  	98.903764 
2763.172217  	98.884606 
2764.609124  	98.866277 
2766.046031  	98.846377 
2767.482938  	98.826057 
2768.919845  	98.835772 
2770.356752  	98.851669 
2771.793659  	98.852150 
2773.230566  	98.835829 
2774.667473  	98.785512 
2776.104380  	98.761100 
2777.541287  	98.784838 
2778.978194  	98.773669 
2780.415101  	98.740114 
2781.852008  	98.737851 
2783.288915  	98.742340 
2784.725822  	98.736513 
2786.162729  	98.719852 
2787.599636  	98.709908 
2789.036543  	98.722613 
2790.473450  	98.712359 
2791.910357  	98.675478 
2793.347264  	98.662843 
2794.784171  	98.650895 
2796.221078  	98.613581 
2797.657985  	98.595200 
2799.094892  	98.596569 
2800.531799  	98.583717 
2801.968706  	98.576777 
2803.405613  	98.583208 
2804.842520  	98.576195 
2806.279427  	98.556252 
2807.716334  	98.529495 
2809.153241  	98.515673 
2810.590148  	98.521909 
2812.027056  	98.498315 
2813.463963  	98.460913 
2814.900870  	98.455616 
2816.337777  	98.436020 
2817.774684  	98.404460 
2819.211591  	98.403071 
2820.648498  	98.397835 
2822.085405  	98.383457 
2823.522312  	98.376514 
2824.959219  	98.357296 
2826.396126  	98.324586 
2827.833033  	98.292855 
2829.269940  	98.284867 
2830.706847  	98.280104 
2832.143754  	98.243738 
2833.580661  	98.227434 
2835.017568  	98.220295 
2836.454475  	98.165946 
2837.891382  	98.138497 
2839.328289  	98.149536 
2840.765196  	98.119007 
2842.202103  	98.068527 
2843.639010  	98.025385 
2845.075917  	97.990399 
2846.512824  	97.978637 
2847.949731  	97.965067 
2849.386638  	97.944870 
2850.823545  	97.920334 
2852.260452  	97.876505 
2853.697359  	97.849145 
2855.134266  	97.834807 
2856.571173  	97.790770 
2858.008080  	97.747948 
2859.444987  	97.732347 
2860.881895  	97.721566 
2862.318802  	97.702959 
2863.755709  	97.665067 
2865.192616  	97.610462 
2866.629523  	97.578561 
2868.066430  	97.575466 
2869.503337  	97.540114 
2870.940244  	97.479702 
2872.377151  	97.469699 
2873.814058  	97.463563 
2875.250965  	97.403403 
2876.687872  	97.363401 
2878.124779  	97.351566 
2879.561686  	97.309803 
2880.998593  	97.266553 
2882.435500  	97.240543 
2883.872407  	97.199548 
2885.309314  	97.141332 
2886.746221  	97.094964 
2888.183128  	97.064032 
2889.620035  	97.015894 
2891.056942  	96.976855 
2892.493849  	96.979780 
2893.930756  	96.948950 
2895.367663  	96.865901 
2896.804570  	96.800705 
2898.241477  	96.735362 
2899.678384  	96.661135 
2901.115291  	96.635106 
2902.552198  	96.623236 
2903.989105  	96.564187 
2905.426012  	96.495341 
2906.862919  	96.447516 
2908.299826  	96.390455 
2909.736733  	96.340665 
2911.173641  	96.329653 
2912.610548  	96.308628 
2914.047455  	96.255076 
2915.484362  	96.208778 
2916.921269  	96.165452 
2918.358176  	96.122194 
2919.795083  	96.087227 
2921.231990  	96.032416 
2922.668897  	95.972327 
2924.105804  	95.928674 
2925.542711  	95.878637 
2926.979618  	95.834161 
2928.416525  	95.799556 
2929.853432  	95.747148 
2931.290339  	95.681223 
2932.727246  	95.608275 
2934.164153  	95.541381 
2935.601060  	95.497850 
2937.037967  	95.453532 
2938.474874  	95.399919 
2939.911781  	95.350696 
2941.348688  	95.300705 
2942.785595  	95.256032 
2944.222502  	95.215086 
2945.659409  	95.168247 
2947.096316  	95.129169 
2948.533223  	95.090567 
2949.970130  	95.039476 
2951.407037  	94.999728 
2952.843944  	94.982274 
2954.280851  	94.960223 
2955.717758  	94.913934 
2957.154665  	94.864724 
2958.591572  	94.831583 
2960.028479  	94.802361 
2961.465387  	94.786218 
2962.902294  	94.786491 
2964.339201  	94.778096 
2965.776108  	94.781365 
2967.213015  	94.802059 
2968.649922  	94.787084 
2970.086829  	94.731052 
2971.523736  	94.655308 
2972.960643  	94.541093 
2974.397550  	94.385606 
2975.834457  	94.225920 
2977.271364  	94.078014 
2978.708271  	93.909407 
2980.145178  	93.696607 
2981.582085  	93.478408 
2983.018992  	93.308601 
2984.455899  	93.183243 
2985.892806  	93.050815 
2987.329713  	92.895946 
2988.766620  	92.764422 
2990.203527  	92.647113 
2991.640434  	92.501940 
2993.077341  	92.389354 
2994.514248  	92.328867 
2995.951155  	92.236571 
2997.388062  	92.132903 
2998.824969  	92.061669 
3000.261876  	91.954715 
3001.698783  	91.801667 
3003.135690  	91.675140 
3004.572597  	91.566207 
3006.009504  	91.420218 
3007.446411  	91.264264 
3008.883318  	91.137597 
3010.320226  	91.015328 
3011.757133  	90.876993 
3013.194040  	90.691920 
3014.630947  	90.461813 
3016.067854  	90.280518 
3017.504761  	90.127701 
3018.941668  	89.925659 
3020.378575  	89.732059 
3021.815482  	89.538560 
3023.252389  	89.316478 
3024.689296  	89.124867 
3026.126203  	88.918845 
3027.563110  	88.697414 
3029.000017  	88.509711 
3030.436924  	88.288313 
3031.873831  	88.073144 
3033.310738  	87.886871 
3034.747645  	87.636639 
3036.184552  	87.389036 
3037.621459  	87.168950 
3039.058366  	86.944760 
3040.495273  	86.779227 
3041.932180  	86.594182 
3043.369087  	86.349324 
3044.805994  	86.131332 
3046.242901  	85.912491 
3047.679808  	85.686056 
3049.116715  	85.440343 
3050.553622  	85.167864 
3051.990529  	84.967350 
3053.427436  	84.780124 
3054.864343  	84.546933 
3056.301250  	84.340795 
3057.738157  	84.113449 
3059.175064  	83.864504 
3060.611972  	83.628675 
3062.048879  	83.358539 
3063.485786  	83.104223 
3064.922693  	82.876329 
3066.359600  	82.641784 
3067.796507  	82.405558 
3069.233414  	82.133336 
3070.670321  	81.889679 
3072.107228  	81.667424 
3073.544135  	81.384842 
3074.981042  	81.143655 
3076.417949  	80.922458 
3077.854856  	80.647423 
3079.291763  	80.391237 
3080.728670  	80.120267 
3082.165577  	79.857640 
3083.602484  	79.611208 
3085.039391  	79.285757 
3086.476298  	79.003762 
3087.913205  	78.779908 
3089.350112  	78.502340 
3090.787019  	78.240712 
3092.223926  	77.973838 
3093.660833  	77.709906 
3095.097740  	77.480960 
3096.534647  	77.181626 
3097.971554  	76.887727 
3099.408461  	76.616479 
3100.845368  	76.299809 
3102.282275  	76.044854 
3103.719182  	75.785630 
3105.156089  	75.489913 
3106.592996  	75.228709 
3108.029903  	74.905791 
3109.466811  	74.617325 
3110.903718  	74.398206 
3112.340625  	74.096778 
3113.777532  	73.808480 
3115.214439  	73.536524 
3116.651346  	73.250429 
3118.088253  	73.020609 
3119.525160  	72.707198 
3120.962067  	72.357872 
3122.398974  	72.092248 
3123.835881  	71.815748 
3125.272788  	71.569449 
3126.709695  	71.307074 
3128.146602  	70.975675 
3129.583509  	70.685216 
3131.020416  	70.375408 
3132.457323  	70.082566 
3133.894230  	69.845025 
3135.331137  	69.546445 
3136.768044  	69.278187 
3138.204951  	69.005506 
3139.641858  	68.680304 
3141.078765  	68.455867 
3142.515672  	68.215483 
3143.952579  	67.919433 
3145.389486  	67.674346 
3146.826393  	67.398277 
3148.263300  	67.122707 
3149.700207  	66.823718 
3151.137114  	66.470368 
3152.574021  	66.195430 
3154.010928  	65.933376 
3155.447835  	65.690727 
3156.884742  	65.493252 
3158.321649  	65.206243 
3159.758557  	64.946001 
3161.195464  	64.744090 
3162.632371  	64.510319 
3164.069278  	64.276742 
3165.506185  	63.963854 
3166.943092  	63.688918 
3168.379999  	63.498903 
3169.816906  	63.203011 
3171.253813  	62.962481 
3172.690720  	62.773941 
3174.127627  	62.498161 
3175.564534  	62.282469 
3177.001441  	62.038657 
3178.438348  	61.787958 
3179.875255  	61.607652 
3181.312162  	61.327178 
3182.749069  	61.139017 
3184.185976  	61.018882 
3185.622883  	60.745291 
3187.059790  	60.553705 
3188.496697  	60.380545 
3189.933604  	60.146765 
3191.370511  	59.994176 
3192.807418  	59.754440 
3194.244325  	59.534323 
3195.681232  	59.403714 
3197.118139  	59.189896 
3198.555046  	59.047649 
3199.991953  	58.875280 
3201.428860  	58.620124 
3202.865767  	58.496476 
3204.302674  	58.344239 
3205.739581  	58.207598 
3207.176488  	58.124442 
3208.613395  	57.935033 
3210.050303  	57.847875 
3211.487210  	57.733124 
3212.924117  	57.482388 
3214.361024  	57.388507 
3215.797931  	57.280666 
3217.234838  	57.139865 
3218.671745  	57.082851 
3220.108652  	56.932829 
3221.545559  	56.855733 
3222.982466  	56.801069 
3224.419373  	56.626613 
3225.856280  	56.566503 
3227.293187  	56.497404 
3228.730094  	56.393433 
3230.167001  	56.344614 
3231.603908  	56.181690 
3233.040815  	56.083393 
3234.477722  	56.035715 
3235.914629  	55.920003 
3237.351536  	55.932664 
3238.788443  	55.881302 
3240.225350  	55.782940 
3241.662257  	55.804935 
3243.099164  	55.701817 
3244.536071  	55.632532 
3245.972978  	55.649494 
3247.409885  	55.565999 
3248.846792  	55.588102 
3250.283699  	55.583662 
3251.720606  	55.497071 
3253.157513  	55.529870 
3254.594420  	55.489302 
3256.031327  	55.444040 
3257.468234  	55.465695 
3258.905142  	55.416030 
3260.342049  	55.446154 
3261.778956  	55.439526 
3263.215863  	55.352225 
3264.652770  	55.351947 
3266.089677  	55.311852 
3267.526584  	55.325218 
3268.963491  	55.334064 
3270.400398  	55.192454 
3271.837305  	55.194533 
3273.274212  	55.238972 
3274.711119  	55.232764 
3276.148026  	55.322304 
3277.584933  	55.291528 
3279.021840  	55.268406 
3280.458747  	55.302807 
3281.895654  	55.208403 
3283.332561  	55.260369 
3284.769468  	55.308601 
3286.206375  	55.195448 
3287.643282  	55.232800 
3289.080189  	55.254135 
3290.517096  	55.253238 
3291.954003  	55.333979 
3293.390910  	55.263529 
3294.827817  	55.203335 
3296.264724  	55.195441 
3297.701631  	55.193551 
3299.138538  	55.326733 
3300.575445  	55.320215 
3302.012352  	55.227165 
3303.449259  	55.225120 
3304.886166  	55.135562 
3306.323073  	55.146137 
3307.759980  	55.204125 
3309.196888  	55.166479 
3310.633795  	55.268646 
3312.070702  	55.292843 
3313.507609  	55.225044 
3314.944516  	55.280127 
3316.381423  	55.246345 
3317.818330  	55.226556 
3319.255237  	55.252995 
3320.692144  	55.206794 
3322.129051  	55.266561 
3323.565958  	55.279989 
3325.002865  	55.232505 
3326.439772  	55.258027 
3327.876679  	55.206743 
3329.313586  	55.251627 
3330.750493  	55.325445 
3332.187400  	55.269453 
3333.624307  	55.330538 
3335.061214  	55.333126 
3336.498121  	55.304872 
3337.935028  	55.434610 
3339.371935  	55.406427 
3340.808842  	55.384759 
3342.245749  	55.447877 
3343.682656  	55.382040 
3345.119563  	55.435715 
3346.556470  	55.478818 
3347.993377  	55.449592 
3349.430284  	55.557782 
3350.867191  	55.545280 
3352.304098  	55.566237 
3353.741005  	55.699614 
3355.177912  	55.652656 
3356.614819  	55.702543 
3358.051726  	55.791359 
3359.488634  	55.772994 
3360.925541  	55.907071 
3362.362448  	55.973114 
3363.799355  	55.987846 
3365.236262  	56.099847 
3366.673169  	56.100837 
3368.110076  	56.154686 
3369.546983  	56.226860 
3370.983890  	56.255658 
3372.420797  	56.414901 
3373.857704  	56.434092 
3375.294611  	56.446269 
3376.731518  	56.648295 
3378.168425  	56.722241 
3379.605332  	56.821445 
3381.042239  	56.960446 
3382.479146  	57.025159 
3383.916053  	57.237185 
3385.352960  	57.343667 
3386.789867  	57.347738 
3388.226774  	57.497807 
3389.663681  	57.571554 
3391.100588  	57.676305 
3392.537495  	57.838708 
3393.974402  	57.936499 
3395.411309  	58.144986 
3396.848216  	58.284351 
3398.285123  	58.381673 
3399.722030  	58.572883 
3401.158937  	58.640738 
3402.595844  	58.800294 
3404.032751  	59.007096 
3405.469658  	59.039129 
3406.906565  	59.211016 
3408.343473  	59.408087 
3409.780380  	59.543174 
3411.217287  	59.767080 
3412.654194  	59.864261 
3414.091101  	60.001959 
3415.528008  	60.240788 
3416.964915  	60.369121 
3418.401822  	60.567012 
3419.838729  	60.703807 
3421.275636  	60.797986 
3422.712543  	61.100187 
3424.149450  	61.306787 
3425.586357  	61.475030 
3427.023264  	61.692472 
3428.460171  	61.772538 
3429.897078  	61.947594 
3431.333985  	62.154778 
3432.770892  	62.307359 
3434.207799  	62.573896 
3435.644706  	62.742879 
3437.081613  	62.910547 
3438.518520  	63.150808 
3439.955427  	63.262943 
3441.392334  	63.504231 
3442.829241  	63.792548 
3444.266148  	63.934643 
3445.703055  	64.167779 
3447.139962  	64.377161 
3448.576869  	64.566540 
3450.013776  	64.813770 
3451.450683  	64.959548 
3452.887590  	65.151066 
3454.324497  	65.317394 
3455.761404  	65.423678 
3457.198311  	65.698920 
3458.635219  	65.901881 
3460.072126  	66.043841 
3461.509033  	66.286137 
3462.945940  	66.426865 
3464.382847  	66.624007 
3465.819754  	66.878604 
3467.256661  	67.029861 
3468.693568  	67.243995 
3470.130475  	67.431324 
3471.567382  	67.627634 
3473.004289  	67.912485 
3474.441196  	68.077300 
3475.878103  	68.263854 
3477.315010  	68.469331 
3478.751917  	68.579651 
3480.188824  	68.805808 
3481.625731  	69.033705 
3483.062638  	69.228121 
3484.499545  	69.463824 
3485.936452  	69.556054 
3487.373359  	69.712890 
3488.810266  	69.992623 
3490.247173  	70.185464 
3491.684080  	70.419721 
3493.120987  	70.599939 
3494.557894  	70.721666 
3495.994801  	70.948866 
3497.431708  	71.112331 
3498.868615  	71.300182 
3500.305522  	71.573335 
3501.742429  	71.765928 
3503.179336  	71.965303 
3504.616243  	72.138328 
3506.053150  	72.320577 
3507.490058  	72.566616 
3508.926965  	72.687964 
3510.363872  	72.843323 
3511.800779  	73.076683 
3513.237686  	73.215467 
3514.674593  	73.452194 
3516.111500  	73.692006 
3517.548407  	73.835807 
3518.985314  	74.050981 
3520.422221  	74.238211 
3521.859128  	74.454630 
3523.296035  	74.720078 
3524.732942  	74.859228 
3526.169849  	75.038027 
3527.606756  	75.192198 
3529.043663  	75.240690 
3530.480570  	75.421245 
3531.917477  	75.657438 
3533.354384  	75.910540 
3534.791291  	76.140969 
3536.228198  	76.264378 
3537.665105  	76.477477 
3539.102012  	76.670392 
3540.538919  	76.751870 
3541.975826  	76.942171 
3543.412733  	77.139636 
3544.849640  	77.331338 
3546.286547  	77.557874 
3547.723454  	77.738044 
3549.160361  	77.884294 
3550.597268  	78.051320 
3552.034175  	78.228291 
3553.471082  	78.457688 
3554.907989  	78.634568 
3556.344896  	78.789521 
3557.781804  	78.989506 
3559.218711  	79.154018 
3560.655618  	79.317891 
3562.092525  	79.512019 
3563.529432  	79.709217 
3564.966339  	79.955229 
3566.403246  	80.202915 
3567.840153  	80.371272 
3569.277060  	80.449170 
3570.713967  	80.517901 
3572.150874  	80.658888 
3573.587781  	80.834612 
3575.024688  	81.026364 
3576.461595  	81.323553 
3577.898502  	81.507106 
3579.335409  	81.597932 
3580.772316  	81.733405 
3582.209223  	81.850875 
3583.646130  	82.096549 
3585.083037  	82.403015 
3586.519944  	82.649470 
3587.956851  	82.908176 
3589.393758  	82.854762 
3590.830665  	82.778449 
3592.267572  	82.981038 
3593.704479  	83.173358 
3595.141386  	83.411951 
3596.578293  	83.728629 
3598.015200  	83.818649 
3599.452107  	83.875326 
3600.889014  	83.976865 
3602.325921  	84.086305 
3603.762828  	84.314913 
3605.199735  	84.525244 
3606.636642  	84.777460 
3608.073550  	85.109105 
3609.510457  	85.205685 
3610.947364  	85.229312 
3612.384271  	85.360349 
3613.821178  	85.536081 
3615.258085  	85.791225 
3616.694992  	85.932245 
3618.131899  	86.069308 
3619.568806  	86.333520 
3621.005713  	86.372930 
3622.442620  	86.368886 
3623.879527  	86.570582 
3625.316434  	86.792867 
3626.753341  	87.039371 
3628.190248  	87.433724 
3629.627155  	87.678614 
3631.064062  	87.496438 
3632.500969  	87.562468 
3633.937876  	87.829857 
3635.374783  	87.960136 
3636.811690  	88.104609 
3638.248597  	88.394259 
3639.685504  	88.562392 
3641.122411  	88.770454 
3642.559318  	89.069835 
3643.996225  	89.203709 
3645.433132  	89.495310 
3646.870039  	90.041853 
3648.306946  	90.396931 
3649.743853  	90.543787 
3651.180760  	90.572187 
3652.617667  	90.503687 
3654.054574  	90.686174 
3655.491481  	91.021129 
3656.928389  	91.369895 
3658.365296  	91.588801 
3659.802203  	91.732925 
3661.239110  	91.926746 
3662.676017  	92.123014 
3664.112924  	92.322032 
3665.549831  	92.547896 
3666.986738  	92.795051 
3668.423645  	93.105260 
3669.860552  	93.436950 
3671.297459  	93.518944 
3672.734366  	93.568103 
3674.171273  	93.822904 
3675.608180  	94.118443 
3677.045087  	94.178444 
3678.481994  	94.323964 
3679.918901  	94.514560 
3681.355808  	94.607507 
3682.792715  	94.758646 
3684.229622  	94.954674 
3685.666529  	95.120408 
3687.103436  	95.352493 
3688.540343  	95.678563 
3689.977250  	95.664900 
3691.414157  	95.664436 
3692.851064  	95.651839 
3694.287971  	95.637285 
3695.724878  	95.756602 
3697.161785  	95.862753 
3698.598692  	95.982664 
3700.035599  	96.160874 
3701.472506  	96.305392 
3702.909413  	96.353893 
3704.346320  	96.380197 
3705.783227  	96.420227 
3707.220135  	96.507228 
3708.657042  	96.645236 
3710.093949  	96.803988 
3711.530856  	96.900035 
3712.967763  	96.843539 
3714.404670  	96.822449 
3715.841577  	96.874634 
3717.278484  	96.961574 
3718.715391  	97.045196 
3720.152298  	97.071802 
3721.589205  	97.148708 
3723.026112  	97.228381 
3724.463019  	97.216416 
3725.899926  	97.332179 
3727.336833  	97.396244 
3728.773740  	97.262697 
3730.210647  	97.330410 
3731.647554  	97.507217 
3733.084461  	97.597744 
3734.521368  	97.863243 
3735.958275  	97.989434 
3737.395182  	97.598263 
3738.832089  	97.504521 
3740.268996  	97.535744 
3741.705903  	97.520475 
3743.142810  	97.806873 
3744.579717  	98.202445 
3746.016624  	97.854696 
3747.453531  	97.855130 
3748.890438  	98.248780 
3750.327345  	98.419730 
3751.764252  	98.184565 
3753.201159  	97.778855 
3754.638066  	97.516529 
3756.074973  	97.680005 
3757.511881  	97.854007 
3758.948788  	97.844528 
3760.385695  	97.877901 
3761.822602  	97.714779 
3763.259509  	97.621033 
3764.696416  	97.835610 
3766.133323  	97.873891 
3767.570230  	97.759904 
3769.007137  	97.895319 
3770.444044  	97.892236 
3771.880951  	97.715269 
3773.317858  	97.726222 
3774.754765  	97.741221 
3776.191672  	97.704529 
3777.628579  	97.750083 
3779.065486  	97.869134 
3780.502393  	97.845327 
3781.939300  	97.738316 
3783.376207  	97.807810 
3784.813114  	97.859659 
3786.250021  	97.771578 
3787.686928  	97.777652 
3789.123835  	97.825765 
3790.560742  	97.846880 
3791.997649  	97.853997 
3793.434556  	97.785001 
3794.871463  	97.870198 
3796.308370  	98.089972 
3797.745277  	98.063030 
3799.182184  	98.075480 
3800.619091  	98.379408 
3802.055998  	98.444553 
3803.492905  	97.912126 
3804.929812  	97.824701 
3806.366720  	98.122637 
3807.803627  	98.183284 
3809.240534  	97.910953 
3810.677441  	97.882600 
3812.114348  	97.850676 
3813.551255  	97.891008 
3814.988162  	98.239506 
3816.425069  	98.332170 
3817.861976  	98.012377 
3819.298883  	98.235324 
3820.735790  	98.633187 
3822.172697  	98.370381 
3823.609604  	97.862014 
3825.046511  	97.788181 
3826.483418  	97.854446 
3827.920325  	97.845295 
3829.357232  	97.892520 
3830.794139  	98.074051 
3832.231046  	98.184346 
3833.667953  	98.178495 
3835.104860  	98.211686 
3836.541767  	98.277947 
3837.978674  	98.339300 
3839.415581  	98.274272 
3840.852488  	98.135306 
3842.289395  	98.098620 
3843.726302  	98.071684 
3845.163209  	97.978366 
3846.600116  	97.935801 
3848.037023  	98.014747 
3849.473930  	98.150307 
3850.910837  	98.395383 
3852.347744  	98.907379 
3853.784651  	99.064699 
3855.221558  	98.178876 
3856.658466  	97.980090 
3858.095373  	97.936316 
3859.532280  	97.905289 
3860.969187  	98.100661 
3862.406094  	98.211583 
3863.843001  	98.237093 
3865.279908  	98.309756 
3866.716815  	98.091499 
3868.153722  	98.185869 
3869.590629  	98.558220 
3871.027536  	98.197567 
3872.464443  	97.970823 
3873.901350  	98.219902 
3875.338257  	98.072483 
3876.775164  	97.873110 
3878.212071  	98.039375 
3879.648978  	98.235561 
3881.085885  	98.236696 
3882.522792  	98.093202 
3883.959699  	98.154941 
3885.396606  	98.327495 
3886.833513  	98.091509 
3888.270420  	97.903827 
3889.707327  	98.095773 
3891.144234  	98.292788 
3892.581141  	98.207450 
3894.018048  	98.050497 
3895.454955  	98.041434 
3896.891862  	98.164915 
3898.328769  	98.302095 
3899.765676  	98.369991 
3901.202583  	98.382291 
3902.639490  	98.419676 
3904.076397  	98.373982 
3905.513305  	98.091903 
3906.950212  	97.911775 
3908.387119  	97.940334 
3909.824026  	98.010923 
3911.260933  	98.081634 
3912.697840  	98.083164 
3914.134747  	98.078625 
3915.571654  	98.135748 
3917.008561  	98.147798 
3918.445468  	98.091270 
3919.882375  	98.073318 
3921.319282  	98.027229 
3922.756189  	98.032464 
3924.193096  	98.095382 
3925.630003  	98.070915 
3927.066910  	98.040714 
3928.503817  	98.076933 
3929.940724  	98.092556 
3931.377631  	98.104650 
3932.814538  	98.090796 
3934.251445  	98.013026 
3935.688352  	97.964083 
3937.125259  	97.986417 
3938.562166  	98.025485 
3939.999073  	98.062882 
3941.435980  	98.135804 
3942.872887  	98.166596 
3944.309794  	98.116015 
3945.746701  	98.092195 
3947.183608  	98.113025 
3948.620515  	98.103353 
3950.057422  	98.092302 
3951.494329  	98.093002 
3952.931236  	98.094373 
3954.368143  	98.111281 
3955.805051  	98.110551 
3957.241958  	98.095017 
3958.678865  	98.098751 
3960.115772  	98.138676 
3961.552679  	98.195149 
3962.989586  	98.194981 
3964.426493  	98.122432 
3965.863400  	98.100456 
3967.300307  	98.111175 
3968.737214  	98.080732 
3970.174121  	98.041891 
3971.611028  	98.046437 
3973.047935  	98.099912 
3974.484842  	98.119354 
3975.921749  	98.082787 
3977.358656  	98.088045 
3978.795563  	98.131466 
3980.232470  	98.164526 
3981.669377  	98.175077 
3983.106284  	98.141911 
3984.543191  	98.113696 
3985.980098  	98.123277 
3987.417005  	98.136304 
3988.853912  	98.150848 
3990.290819  	98.155534 
3991.727726  	98.146690 
3993.164633  	98.151654 
3994.601540  	98.159682 
3996.038447  	98.168026 
3997.475354  	98.185465 
3998.912261  	98.187651 
4000.349168  	98.162717 