##TITLE=No Description
##DATA TYPE=INFRARED SPECTRUM
##XUNITS=1/CM
##YUNITS=%T
399.460154  	43.189944 
400.897061  	41.119002 
402.333968  	39.946592 
403.770875  	39.457607 
405.207782  	39.837213 
406.644689  	41.509311 
408.081596  	40.703163 
409.518503  	40.422187 
410.955410  	41.282727 
412.392317  	40.813017 
413.829224  	41.247774 
415.266131  	41.001140 
416.703038  	40.279580 
418.139945  	41.783543 
419.576852  	41.857490 
421.013759  	41.469051 
422.450666  	41.427236 
423.887574  	39.906278 
425.324481  	39.874436 
426.761388  	40.182415 
428.198295  	39.846662 
429.635202  	39.986278 
431.072109  	39.313407 
432.509016  	39.753320 
433.945923  	40.868568 
435.382830  	39.953478 
436.819737  	39.965827 
438.256644  	40.488716 
439.693551  	40.040660 
441.130458  	40.930845 
442.567365  	41.302980 
444.004272  	40.347058 
445.441179  	40.309036 
446.878086  	40.221855 
448.314993  	40.125454 
449.751900  	39.854022 
451.188807  	39.560801 
452.625714  	40.258074 
454.062621  	40.211949 
455.499528  	39.817009 
456.936435  	40.372890 
458.373342  	40.876014 
459.810249  	40.991483 
461.247156  	40.663060 
462.684063  	40.163461 
464.120970  	40.068569 
465.557877  	39.631206 
466.994784  	39.913818 
468.431691  	40.465073 
469.868598  	39.598531 
471.305505  	39.492239 
472.742413  	40.104272 
474.179320  	39.832088 
475.616227  	40.056274 
477.053134  	40.026144 
478.490041  	39.587668 
479.926948  	39.783464 
481.363855  	39.942480 
482.800762  	40.059531 
484.237669  	39.924908 
485.674576  	39.742233 
487.111483  	40.158455 
488.548390  	39.945819 
489.985297  	39.533525 
491.422204  	39.827485 
492.859111  	39.809779 
494.296018  	39.844043 
495.732925  	39.935903 
497.169832  	39.874078 
498.606739  	40.430280 
500.043646  	40.424505 
501.480553  	39.740048 
502.917460  	39.866154 
504.354367  	40.027712 
505.791274  	40.069161 
507.228181  	40.300991 
508.665088  	40.015903 
510.101995  	39.809656 
511.538902  	39.869722 
512.975809  	39.947389 
514.412716  	40.142529 
515.849623  	39.968138 
517.286530  	39.973845 
518.723437  	40.499675 
520.160344  	40.467080 
521.597251  	40.199173 
523.034159  	40.166524 
524.471066  	40.206916 
525.907973  	40.439557 
527.344880  	40.477131 
528.781787  	40.428609 
530.218694  	40.541204 
531.655601  	40.501023 
533.092508  	40.536457 
534.529415  	40.699654 
535.966322  	40.784087 
537.403229  	40.849908 
538.840136  	40.706689 
540.277043  	40.716066 
541.713950  	41.076748 
543.150857  	41.126909 
544.587764  	40.938925 
546.024671  	40.854061 
547.461578  	40.910462 
548.898485  	41.197126 
550.335392  	41.313662 
551.772299  	41.180512 
553.209206  	41.181164 
554.646113  	41.275594 
556.083020  	41.400714 
557.519927  	41.394164 
558.956834  	41.273863 
560.393741  	41.394999 
561.830648  	41.557301 
563.267555  	41.617380 
564.704462  	41.742791 
566.141369  	41.816201 
567.578276  	41.868670 
569.015183  	41.943107 
570.452090  	42.017830 
571.888997  	42.184791 
573.325905  	42.277357 
574.762812  	42.305771 
576.199719  	42.397016 
577.636626  	42.428494 
579.073533  	42.523636 
580.510440  	42.684588 
581.947347  	42.726171 
583.384254  	42.780751 
584.821161  	42.862541 
586.258068  	42.986383 
587.694975  	43.165338 
589.131882  	43.167424 
590.568789  	43.136703 
592.005696  	43.306302 
593.442603  	43.456312 
594.879510  	43.503901 
596.316417  	43.572276 
597.753324  	43.702970 
599.190231  	43.818113 
600.627138  	43.849933 
602.064045  	43.943220 
603.500952  	44.076034 
604.937859  	44.167777 
606.374766  	44.293215 
607.811673  	44.400908 
609.248580  	44.453790 
610.685487  	44.519423 
612.122394  	44.607884 
613.559301  	44.763371 
614.996208  	44.846987 
616.433115  	44.838527 
617.870022  	44.998584 
619.306929  	45.149739 
620.743836  	45.192184 
622.180744  	45.362755 
623.617651  	45.529558 
625.054558  	45.607561 
626.491465  	45.709317 
627.928372  	45.821329 
629.365279  	45.972157 
630.802186  	46.076452 
632.239093  	46.138973 
633.676000  	46.323872 
635.112907  	46.500944 
636.549814  	46.641646 
637.986721  	46.836256 
639.423628  	46.965660 
640.860535  	47.084396 
642.297442  	47.237577 
643.734349  	47.397351 
645.171256  	47.580927 
646.608163  	47.727363 
648.045070  	47.822009 
649.481977  	47.942687 
650.918884  	48.095410 
652.355791  	48.254092 
653.792698  	48.372866 
655.229605  	48.489418 
656.666512  	48.627973 
658.103419  	48.743753 
659.540326  	48.856670 
660.977233  	48.977636 
662.414140  	49.072982 
663.851047  	49.212349 
665.287954  	49.251729 
666.724861  	49.263243 
668.161768  	49.565229 
669.598675  	49.877909 
671.035582  	49.918258 
672.472490  	50.034428 
673.909397  	50.170396 
675.346304  	50.277893 
676.783211  	50.426875 
678.220118  	50.572403 
679.657025  	50.703788 
681.093932  	50.856136 
682.530839  	50.980692 
683.967746  	51.145631 
685.404653  	51.320566 
686.841560  	51.445488 
688.278467  	51.598988 
689.715374  	51.781125 
691.152281  	51.984249 
692.589188  	52.222167 
694.026095  	52.408595 
695.463002  	52.611675 
696.899909  	52.834864 
698.336816  	52.993177 
699.773723  	53.152841 
701.210630  	53.364908 
702.647537  	53.611931 
704.084444  	53.825887 
705.521351  	53.984242 
706.958258  	54.175084 
708.395165  	54.390457 
709.832072  	54.568293 
711.268979  	54.756259 
712.705886  	54.949424 
714.142793  	55.137023 
715.579700  	55.391072 
717.016607  	55.614621 
718.453514  	55.830623 
719.890421  	56.118948 
721.327328  	56.325050 
722.764236  	56.454686 
724.201143  	56.637744 
725.638050  	56.811104 
727.074957  	56.946871 
728.511864  	57.133412 
729.948771  	57.384576 
731.385678  	57.614821 
732.822585  	57.790310 
734.259492  	57.972936 
735.696399  	58.167532 
737.133306  	58.348956 
738.570213  	58.539952 
740.007120  	58.749630 
741.444027  	58.972555 
742.880934  	59.141746 
744.317841  	59.245346 
745.754748  	59.430623 
747.191655  	59.662452 
748.628562  	59.820130 
750.065469  	60.053258 
751.502376  	60.349041 
752.939283  	60.489188 
754.376190  	60.633982 
755.813097  	60.939480 
757.250004  	61.174612 
758.686911  	61.330295 
760.123818  	61.568087 
761.560725  	61.774620 
762.997632  	61.963443 
764.434539  	62.228230 
765.871446  	62.406332 
767.308353  	62.534471 
768.745260  	62.753057 
770.182167  	62.947837 
771.619075  	63.145940 
773.055982  	63.398184 
774.492889  	63.587556 
775.929796  	63.787238 
777.366703  	64.030625 
778.803610  	64.222521 
780.240517  	64.414494 
781.677424  	64.599268 
783.114331  	64.796036 
784.551238  	65.084844 
785.988145  	65.308356 
787.425052  	65.418231 
788.861959  	65.588958 
790.298866  	65.813870 
791.735773  	66.015652 
793.172680  	66.203740 
794.609587  	66.394638 
796.046494  	66.613882 
797.483401  	66.856783 
798.920308  	67.069431 
800.357215  	67.206971 
801.794122  	67.342673 
803.231029  	67.570148 
804.667936  	67.804868 
806.104843  	68.040535 
807.541750  	68.371329 
808.978657  	68.680551 
810.415564  	68.910223 
811.852471  	69.188144 
813.289378  	69.522314 
814.726285  	69.844072 
816.163192  	70.104728 
817.600099  	70.321727 
819.037006  	70.553688 
820.473913  	70.752802 
821.910821  	70.933391 
823.347728  	71.175547 
824.784635  	71.425457 
826.221542  	71.642709 
827.658449  	71.844527 
829.095356  	72.048073 
830.532263  	72.279894 
831.969170  	72.506536 
833.406077  	72.716082 
834.842984  	72.930021 
836.279891  	73.149208 
837.716798  	73.378418 
839.153705  	73.566145 
840.590612  	73.757642 
842.027519  	74.044856 
843.464426  	74.306678 
844.901333  	74.506662 
846.338240  	74.728980 
847.775147  	74.921181 
849.212054  	75.104468 
850.648961  	75.315089 
852.085868  	75.514203 
853.522775  	75.733458 
854.959682  	75.942145 
856.396589  	76.114348 
857.833496  	76.293322 
859.270403  	76.482146 
860.707310  	76.735452 
862.144217  	77.019780 
863.581124  	77.244402 
865.018031  	77.472635 
866.454938  	77.707128 
867.891845  	77.925007 
869.328752  	78.167080 
870.765660  	78.418298 
872.202567  	78.684267 
873.639474  	78.899864 
875.076381  	79.057561 
876.513288  	79.294716 
877.950195  	79.521883 
879.387102  	79.689745 
880.824009  	79.896947 
882.260916  	80.052667 
883.697823  	80.193570 
885.134730  	80.385125 
886.571637  	80.525109 
888.008544  	80.666303 
889.445451  	80.790792 
890.882358  	80.861050 
892.319265  	81.010447 
893.756172  	81.184182 
895.193079  	81.308819 
896.629986  	81.432631 
898.066893  	81.558295 
899.503800  	81.689309 
900.940707  	81.742817 
902.377614  	81.769973 
903.814521  	81.874766 
905.251428  	81.884041 
906.688335  	81.842410 
908.125242  	81.846654 
909.562149  	81.714246 
910.999056  	81.539614 
912.435963  	81.448503 
913.872870  	81.432762 
915.309777  	81.610455 
916.746684  	81.858128 
918.183591  	82.093124 
919.620498  	82.416743 
921.057406  	82.692899 
922.494313  	82.997839 
923.931220  	83.441694 
925.368127  	83.809243 
926.805034  	84.142478 
928.241941  	84.474931 
929.678848  	84.693689 
931.115755  	84.920838 
932.552662  	85.140246 
933.989569  	85.288733 
935.426476  	85.445079 
936.863383  	85.577918 
938.300290  	85.701479 
939.737197  	85.814901 
941.174104  	85.879740 
942.611011  	85.949747 
944.047918  	85.994184 
945.484825  	86.033607 
946.921732  	86.075230 
948.358639  	86.012547 
949.795546  	85.928326 
951.232453  	85.868392 
952.669360  	85.814462 
954.106267  	85.883788 
955.543174  	86.042152 
956.980081  	86.251961 
958.416988  	86.528836 
959.853895  	86.738288 
961.290802  	86.900412 
962.727709  	87.058694 
964.164616  	87.167788 
965.601523  	87.319961 
967.038430  	87.486560 
968.475337  	87.602401 
969.912244  	87.698431 
971.349152  	87.730859 
972.786059  	87.757430 
974.222966  	87.800316 
975.659873  	87.809380 
977.096780  	87.863192 
978.533687  	87.924983 
979.970594  	87.984545 
981.407501  	88.108046 
982.844408  	88.191702 
984.281315  	88.272585 
985.718222  	88.400625 
987.155129  	88.461589 
988.592036  	88.504752 
990.028943  	88.547865 
991.465850  	88.572161 
992.902757  	88.650390 
994.339664  	88.713256 
995.776571  	88.745932 
997.213478  	88.785861 
998.650385  	88.786977 
1000.087292  	88.824883 
1001.524199  	88.909640 
1002.961106  	88.979549 
1004.398013  	89.055069 
1005.834920  	89.087244 
1007.271827  	89.107494 
1008.708734  	89.162448 
1010.145641  	89.187843 
1011.582548  	89.222768 
1013.019455  	89.263469 
1014.456362  	89.283375 
1015.893269  	89.332121 
1017.330176  	89.351467 
1018.767083  	89.355897 
1020.203991  	89.394483 
1021.640898  	89.425293 
1023.077805  	89.471252 
1024.514712  	89.472771 
1025.951619  	89.439089 
1027.388526  	89.484185 
1028.825433  	89.504114 
1030.262340  	89.500125 
1031.699247  	89.533237 
1033.136154  	89.489680 
1034.573061  	89.448338 
1036.009968  	89.449934 
1037.446875  	89.414021 
1038.883782  	89.424771 
1040.320689  	89.438618 
1041.757596  	89.416665 
1043.194503  	89.446423 
1044.631410  	89.480293 
1046.068317  	89.529294 
1047.505224  	89.572916 
1048.942131  	89.544835 
1050.379038  	89.538855 
1051.815945  	89.512577 
1053.252852  	89.467766 
1054.689759  	89.529747 
1056.126666  	89.588404 
1057.563573  	89.616185 
1059.000480  	89.672865 
1060.437387  	89.706509 
1061.874294  	89.765681 
1063.311201  	89.810631 
1064.748108  	89.805519 
1066.185015  	89.834631 
1067.621922  	89.824269 
1069.058829  	89.786131 
1070.495737  	89.783392 
1071.932644  	89.759880 
1073.369551  	89.758511 
1074.806458  	89.755016 
1076.243365  	89.743032 
1077.680272  	89.781611 
1079.117179  	89.757934 
1080.554086  	89.732839 
1081.990993  	89.773043 
1083.427900  	89.729091 
1084.864807  	89.681878 
1086.301714  	89.650408 
1087.738621  	89.534445 
1089.175528  	89.457026 
1090.612435  	89.415222 
1092.049342  	89.383551 
1093.486249  	89.453003 
1094.923156  	89.557164 
1096.360063  	89.669685 
1097.796970  	89.778673 
1099.233877  	89.835767 
1100.670784  	89.904649 
1102.107691  	89.950424 
1103.544598  	89.964027 
1104.981505  	90.003318 
1106.418412  	90.024035 
1107.855319  	90.063302 
1109.292226  	90.094160 
1110.729133  	90.077496 
1112.166040  	90.121748 
1113.602947  	90.132125 
1115.039854  	90.069801 
1116.476761  	90.082518 
1117.913668  	90.104344 
1119.350575  	90.110608 
1120.787483  	90.140711 
1122.224390  	90.122276 
1123.661297  	90.093775 
1125.098204  	90.077879 
1126.535111  	90.080698 
1127.972018  	90.126307 
1129.408925  	90.110568 
1130.845832  	90.071255 
1132.282739  	90.089602 
1133.719646  	90.091193 
1135.156553  	90.102408 
1136.593460  	90.126600 
1138.030367  	90.114102 
1139.467274  	90.102305 
1140.904181  	90.086690 
1142.341088  	90.092051 
1143.777995  	90.102341 
1145.214902  	90.062734 
1146.651809  	90.063591 
1148.088716  	90.083337 
1149.525623  	90.058564 
1150.962530  	90.061215 
1152.399437  	90.057822 
1153.836344  	90.045199 
1155.273251  	90.053126 
1156.710158  	90.024094 
1158.147065  	90.011012 
1159.583972  	90.008096 
1161.020879  	89.968592 
1162.457786  	89.962843 
1163.894693  	89.943088 
1165.331600  	89.905727 
1166.768507  	89.918903 
1168.205414  	89.898522 
1169.642322  	89.859931 
1171.079229  	89.852250 
1172.516136  	89.828922 
1173.953043  	89.824377 
1175.389950  	89.821210 
1176.826857  	89.792278 
1178.263764  	89.770684 
1179.700671  	89.729003 
1181.137578  	89.714858 
1182.574485  	89.734270 
1184.011392  	89.702227 
1185.448299  	89.666149 
1186.885206  	89.628377 
1188.322113  	89.563172 
1189.759020  	89.535106 
1191.195927  	89.502295 
1192.632834  	89.434270 
1194.069741  	89.366848 
1195.506648  	89.276052 
1196.943555  	89.175857 
1198.380462  	89.067690 
1199.817369  	88.931193 
1201.254276  	88.801801 
1202.691183  	88.678325 
1204.128090  	88.559722 
1205.564997  	88.468497 
1207.001904  	88.411883 
1208.438811  	88.421418 
1209.875718  	88.478597 
1211.312625  	88.540440 
1212.749532  	88.614996 
1214.186439  	88.694300 
1215.623346  	88.780478 
1217.060253  	88.850358 
1218.497160  	88.877052 
1219.934068  	88.905502 
1221.370975  	88.917312 
1222.807882  	88.910837 
1224.244789  	88.924720 
1225.681696  	88.903657 
1227.118603  	88.882539 
1228.555510  	88.915208 
1229.992417  	88.935991 
1231.429324  	88.951460 
1232.866231  	88.958189 
1234.303138  	88.932326 
1235.740045  	88.930234 
1237.176952  	88.942078 
1238.613859  	88.959360 
1240.050766  	88.992842 
1241.487673  	89.008085 
1242.924580  	89.032642 
1244.361487  	89.048541 
1245.798394  	89.035724 
1247.235301  	89.052837 
1248.672208  	89.052477 
1250.109115  	89.022068 
1251.546022  	89.012717 
1252.982929  	88.989596 
1254.419836  	88.969079 
1255.856743  	88.950620 
1257.293650  	88.917062 
1258.730557  	88.919693 
1260.167464  	88.902089 
1261.604371  	88.855030 
1263.041278  	88.854831 
1264.478185  	88.835851 
1265.915092  	88.781593 
1267.351999  	88.732941 
1268.788907  	88.673462 
1270.225814  	88.623262 
1271.662721  	88.559560 
1273.099628  	88.478289 
1274.536535  	88.417295 
1275.973442  	88.342540 
1277.410349  	88.282861 
1278.847256  	88.254777 
1280.284163  	88.210339 
1281.721070  	88.184302 
1283.157977  	88.163131 
1284.594884  	88.125391 
1286.031791  	88.101359 
1287.468698  	88.046227 
1288.905605  	87.986079 
1290.342512  	87.952648 
1291.779419  	87.883513 
1293.216326  	87.806988 
1294.653233  	87.729925 
1296.090140  	87.633073 
1297.527047  	87.558807 
1298.963954  	87.470004 
1300.400861  	87.360146 
1301.837768  	87.234616 
1303.274675  	87.105771 
1304.711582  	86.973872 
1306.148489  	86.863921 
1307.585396  	86.695972 
1309.022303  	86.506716 
1310.459210  	86.306382 
1311.896117  	86.051228 
1313.333024  	85.772054 
1314.769931  	85.474530 
1316.206838  	85.142461 
1317.643745  	84.790507 
1319.080653  	84.442571 
1320.517560  	84.160751 
1321.954467  	83.964212 
1323.391374  	83.857066 
1324.828281  	83.896536 
1326.265188  	84.029679 
1327.702095  	84.246685 
1329.139002  	84.534849 
1330.575909  	84.805677 
1332.012816  	85.055776 
1333.449723  	85.264289 
1334.886630  	85.267934 
1336.323537  	85.253548 
1337.760444  	85.204892 
1339.197351  	85.127182 
1340.634258  	85.046486 
1342.071165  	84.928348 
1343.508072  	84.741018 
1344.944979  	84.469075 
1346.381886  	84.222472 
1347.818793  	83.843938 
1349.255700  	83.401234 
1350.692607  	82.903979 
1352.129514  	82.446350 
1353.566421  	82.023967 
1355.003328  	81.669329 
1356.440235  	81.477532 
1357.877142  	81.382186 
1359.314049  	81.392910 
1360.750956  	81.510038 
1362.187863  	81.682012 
1363.624770  	82.032323 
1365.061677  	82.346706 
1366.498584  	82.498749 
1367.935491  	82.486003 
1369.372399  	82.453913 
1370.809306  	82.385768 
1372.246213  	82.274759 
1373.683120  	82.132405 
1375.120027  	81.990588 
1376.556934  	81.852471 
1377.993841  	81.697372 
1379.430748  	81.552638 
1380.867655  	81.380800 
1382.304562  	81.105634 
1383.741469  	80.834788 
1385.178376  	80.515555 
1386.615283  	80.190595 
1388.052190  	79.903285 
1389.489097  	79.603662 
1390.926004  	79.315250 
1392.362911  	79.065097 
1393.799818  	78.803866 
1395.236725  	78.611489 
1396.673632  	78.420161 
1398.110539  	78.190005 
1399.547446  	78.047626 
1400.984353  	77.970205 
1402.421260  	77.909002 
1403.858167  	78.025125 
1405.295074  	78.321348 
1406.731981  	78.809929 
1408.168888  	79.404704 
1409.605795  	80.106309 
1411.042702  	80.942058 
1412.479609  	81.755192 
1413.916516  	82.062884 
1415.353423  	82.807916 
1416.790330  	83.403029 
1418.227238  	83.963828 
1419.664145  	84.608072 
1421.101052  	85.129508 
1422.537959  	85.473097 
1423.974866  	85.726375 
1425.411773  	86.153515 
1426.848680  	86.631470 
1428.285587  	86.670170 
1429.722494  	86.703759 
1431.159401  	86.722590 
1432.596308  	86.777889 
1434.033215  	86.856738 
1435.470122  	86.850736 
1436.907029  	86.931100 
1438.343936  	87.115797 
1439.780843  	87.239869 
1441.217750  	87.436320 
1442.654657  	87.558771 
1444.091564  	87.700496 
1445.528471  	87.782677 
1446.965378  	87.809186 
1448.402285  	87.862865 
1449.839192  	87.947627 
1451.276099  	87.973730 
1452.713006  	88.006631 
1454.149913  	87.994853 
1455.586820  	87.919504 
1457.023727  	87.908604 
1458.460634  	87.980151 
1459.897541  	88.091619 
1461.334448  	88.215212 
1462.771355  	88.277519 
1464.208262  	88.353911 
1465.645169  	88.450167 
1467.082076  	88.482124 
1468.518984  	88.540473 
1469.955891  	88.566671 
1471.392798  	88.554080 
1472.829705  	88.577923 
1474.266612  	88.634580 
1475.703519  	88.691342 
1477.140426  	88.716098 
1478.577333  	88.748227 
1480.014240  	88.793297 
1481.451147  	88.818094 
1482.888054  	88.864069 
1484.324961  	88.865663 
1485.761868  	88.764782 
1487.198775  	88.686421 
1488.635682  	88.599317 
1490.072589  	88.536249 
1491.509496  	88.582978 
1492.946403  	88.543761 
1494.383310  	88.481074 
1495.820217  	88.420762 
1497.257124  	88.296504 
1498.694031  	88.283884 
1500.130938  	88.258991 
1501.567845  	88.187292 
1503.004752  	88.154675 
1504.441659  	88.075863 
1505.878566  	87.949101 
1507.315473  	87.867121 
1508.752380  	87.796277 
1510.189287  	87.783767 
1511.626194  	87.711338 
1513.063101  	87.657707 
1514.500008  	87.646247 
1515.936915  	87.551407 
1517.373822  	87.471517 
1518.810730  	87.402738 
1520.247637  	87.219418 
1521.684544  	87.148539 
1523.121451  	87.134947 
1524.558358  	87.029973 
1525.995265  	86.982378 
1527.432172  	86.844196 
1528.869079  	86.722587 
1530.305986  	86.658174 
1531.742893  	86.440550 
1533.179800  	86.236486 
1534.616707  	86.081406 
1536.053614  	85.902916 
1537.490521  	85.738716 
1538.927428  	85.501474 
1540.364335  	85.275135 
1541.801242  	85.144425 
1543.238149  	84.908339 
1544.675056  	84.726778 
1546.111963  	84.530764 
1547.548870  	84.284790 
1548.985777  	84.033138 
1550.422684  	83.726228 
1551.859591  	83.450018 
1553.296498  	83.202545 
1554.733405  	82.897282 
1556.170312  	82.636126 
1557.607219  	82.304428 
1559.044126  	81.826203 
1560.481033  	81.744469 
1561.917940  	81.477778 
1563.354847  	81.173369 
1564.791754  	80.943910 
1566.228661  	80.586908 
1567.665569  	80.266443 
1569.102476  	79.964137 
1570.539383  	79.562707 
1571.976290  	79.372350 
1573.413197  	78.932310 
1574.850104  	78.554333 
1576.287011  	78.305151 
1577.723918  	77.933654 
1579.160825  	77.534561 
1580.597732  	77.175065 
1582.034639  	76.773231 
1583.471546  	76.441246 
1584.908453  	76.046280 
1586.345360  	75.576199 
1587.782267  	75.175270 
1589.219174  	74.609799 
1590.656081  	74.051613 
1592.092988  	73.532397 
1593.529895  	72.911937 
1594.966802  	72.316119 
1596.403709  	71.690317 
1597.840616  	71.001762 
1599.277523  	70.392077 
1600.714430  	69.675353 
1602.151337  	68.926788 
1603.588244  	68.306180 
1605.025151  	67.555717 
1606.462058  	66.902725 
1607.898965  	66.283830 
1609.335872  	65.596305 
1610.772779  	65.118889 
1612.209686  	64.596971 
1613.646593  	64.045680 
1615.083500  	63.594719 
1616.520407  	63.151434 
1617.957315  	63.127861 
1619.394222  	63.041237 
1620.831129  	62.719527 
1622.268036  	62.650823 
1623.704943  	62.843395 
1625.141850  	62.818606 
1626.578757  	62.766188 
1628.015664  	62.829032 
1629.452571  	63.082559 
1630.889478  	63.308152 
1632.326385  	63.360421 
1633.763292  	63.361341 
1635.200199  	63.540435 
1636.637106  	64.406634 
1638.074013  	64.963249 
1639.510920  	65.115144 
1640.947827  	65.475378 
1642.384734  	65.966881 
1643.821641  	66.216605 
1645.258548  	66.515109 
1646.695455  	67.135363 
1648.132362  	67.872893 
1649.569269  	68.357734 
1651.006176  	68.476732 
1652.443083  	68.584618 
1653.879990  	70.710384 
1655.316897  	71.180571 
1656.753804  	71.262815 
1658.190711  	71.804004 
1659.627618  	72.349012 
1661.064525  	72.815391 
1662.501432  	73.424790 
1663.938339  	74.067244 
1665.375246  	74.571294 
1666.812154  	75.000174 
1668.249061  	75.511596 
1669.685968  	76.287584 
1671.122875  	77.001590 
1672.559782  	77.505971 
1673.996689  	77.909916 
1675.433596  	78.409899 
1676.870503  	79.142492 
1678.307410  	79.625737 
1679.744317  	80.112694 
1681.181224  	80.704959 
1682.618131  	81.033000 
1684.055038  	81.399848 
1685.491945  	82.305862 
1686.928852  	82.704422 
1688.365759  	83.142559 
1689.802666  	83.677024 
1691.239573  	84.097786 
1692.676480  	84.583613 
1694.113387  	84.870059 
1695.550294  	85.102048 
1696.987201  	85.612293 
1698.424108  	85.868158 
1699.861015  	86.059109 
1701.297922  	86.698802 
1702.734829  	87.063077 
1704.171736  	87.293063 
1705.608643  	87.565551 
1707.045550  	87.787791 
1708.482457  	88.120082 
1709.919364  	88.438610 
1711.356271  	88.686023 
1712.793178  	88.950448 
1714.230085  	89.181544 
1715.666992  	89.456602 
1717.103900  	89.762136 
1718.540807  	90.045966 
1719.977714  	90.369882 
1721.414621  	90.578811 
1722.851528  	90.768205 
1724.288435  	91.023479 
1725.725342  	91.225796 
1727.162249  	91.468167 
1728.599156  	91.616997 
1730.036063  	91.725889 
1731.472970  	91.930901 
1732.909877  	92.059535 
1734.346784  	92.108144 
1735.783691  	92.309053 
1737.220598  	92.448553 
1738.657505  	92.565993 
1740.094412  	92.711884 
1741.531319  	92.797376 
1742.968226  	92.926374 
1744.405133  	93.046784 
1745.842040  	93.164209 
1747.278947  	93.331346 
1748.715854  	93.431384 
1750.152761  	93.540251 
1751.589668  	93.693628 
1753.026575  	93.775526 
1754.463482  	93.904866 
1755.900389  	93.962051 
1757.337296  	93.982722 
1758.774203  	94.105400 
1760.211110  	94.172559 
1761.648017  	94.224744 
1763.084924  	94.319740 
1764.521831  	94.370157 
1765.958738  	94.459961 
1767.395646  	94.538946 
1768.832553  	94.562415 
1770.269460  	94.609949 
1771.706367  	94.575943 
1773.143274  	94.517749 
1774.580181  	94.650986 
1776.017088  	94.733699 
1777.453995  	94.821765 
1778.890902  	94.901975 
1780.327809  	94.914164 
1781.764716  	94.963233 
1783.201623  	94.985213 
1784.638530  	94.996182 
1786.075437  	95.058112 
1787.512344  	95.066927 
1788.949251  	95.106985 
1790.386158  	95.158327 
1791.823065  	95.113076 
1793.259972  	95.131906 
1794.696879  	95.210097 
1796.133786  	95.255047 
1797.570693  	95.320941 
1799.007600  	95.339700 
1800.444507  	95.333652 
1801.881414  	95.353413 
1803.318321  	95.356287 
1804.755228  	95.408826 
1806.192135  	95.460529 
1807.629042  	95.463356 
1809.065949  	95.508898 
1810.502856  	95.500658 
1811.939763  	95.467624 
1813.376670  	95.526878 
1814.813577  	95.574457 
1816.250485  	95.622472 
1817.687392  	95.624143 
1819.124299  	95.572792 
1820.561206  	95.590449 
1821.998113  	95.579087 
1823.435020  	95.576388 
1824.871927  	95.606135 
1826.308834  	95.607199 
1827.745741  	95.691637 
1829.182648  	95.732686 
1830.619555  	95.666355 
1832.056462  	95.710635 
1833.493369  	95.757734 
1834.930276  	95.777353 
1836.367183  	95.825113 
1837.804090  	95.776262 
1839.240997  	95.764409 
1840.677904  	95.782683 
1842.114811  	95.773840 
1843.551718  	95.827759 
1844.988625  	95.797237 
1846.425532  	95.773875 
1847.862439  	95.871361 
1849.299346  	95.867531 
1850.736253  	95.845040 
1852.173160  	95.862013 
1853.610067  	95.847396 
1855.046974  	95.867824 
1856.483881  	95.841998 
1857.920788  	95.831425 
1859.357695  	95.907350 
1860.794602  	95.872548 
1862.231509  	95.853624 
1863.668416  	95.924327 
1865.105323  	95.932643 
1866.542231  	95.975520 
1867.979138  	95.919281 
1869.416045  	95.778599 
1870.852952  	95.858555 
1872.289859  	95.903896 
1873.726766  	95.938139 
1875.163673  	96.053290 
1876.600580  	96.009566 
1878.037487  	96.016698 
1879.474394  	95.981609 
1880.911301  	95.850439 
1882.348208  	95.877103 
1883.785115  	95.824077 
1885.222022  	95.791407 
1886.658929  	95.912699 
1888.095836  	95.892869 
1889.532743  	95.893289 
1890.969650  	95.908446 
1892.406557  	95.901063 
1893.843464  	95.971056 
1895.280371  	95.959504 
1896.717278  	95.900917 
1898.154185  	95.952805 
1899.591092  	95.949635 
1901.027999  	95.983962 
1902.464906  	95.988683 
1903.901813  	95.916519 
1905.338720  	96.023178 
1906.775627  	96.001035 
1908.212534  	95.909364 
1909.649441  	96.020163 
1911.086348  	95.976090 
1912.523255  	95.936372 
1913.960162  	96.009696 
1915.397069  	95.971802 
1916.833977  	96.012509 
1918.270884  	95.995006 
1919.707791  	95.948576 
1921.144698  	96.019979 
1922.581605  	96.026531 
1924.018512  	96.070003 
1925.455419  	96.179309 
1926.892326  	96.122720 
1928.329233  	96.146169 
1929.766140  	96.115625 
1931.203047  	95.981299 
1932.639954  	96.003394 
1934.076861  	95.918646 
1935.513768  	95.965649 
1936.950675  	96.107106 
1938.387582  	95.927058 
1939.824489  	95.927758 
1941.261396  	96.021928 
1942.698303  	95.955001 
1944.135210  	96.039168 
1945.572117  	95.964838 
1947.009024  	95.967223 
1948.445931  	96.023562 
1949.882838  	95.820020 
1951.319745  	95.887008 
1952.756652  	95.951094 
1954.193559  	95.818730 
1955.630466  	95.955358 
1957.067373  	95.935457 
1958.504280  	95.775568 
1959.941187  	95.874636 
1961.378094  	95.863792 
1962.815001  	95.870353 
1964.251908  	95.834387 
1965.688816  	95.765849 
1967.125723  	96.027992 
1968.562630  	95.975388 
1969.999537  	95.783514 
1971.436444  	95.955392 
1972.873351  	95.957648 
1974.310258  	96.058219 
1975.747165  	96.034203 
1977.184072  	95.768782 
1978.620979  	95.881652 
1980.057886  	95.677926 
1981.494793  	95.480796 
1982.931700  	95.835269 
1984.368607  	95.885178 
1985.805514  	95.745862 
1987.242421  	95.704412 
1988.679328  	95.609754 
1990.116235  	95.892121 
1991.553142  	95.904227 
1992.990049  	95.621298 
1994.426956  	95.604829 
1995.863863  	95.422062 
1997.300770  	95.482189 
1998.737677  	95.595301 
2000.174584  	95.231719 
2001.611491  	95.206719 
2003.048398  	95.302311 
2004.485305  	95.306918 
2005.922212  	95.451363 
2007.359119  	94.992414 
2008.796026  	94.717913 
2010.232933  	94.907773 
2011.669840  	94.756341 
2013.106747  	94.987297 
2014.543654  	95.100652 
2015.980562  	94.722253 
2017.417469  	94.728799 
2018.854376  	94.614092 
2020.291283  	94.702435 
2021.728190  	95.099836 
2023.165097  	94.877737 
2024.602004  	94.879275 
2026.038911  	94.849825 
2027.475818  	94.450246 
2028.912725  	94.751786 
2030.349632  	94.924037 
2031.786539  	94.818434 
2033.223446  	95.005362 
2034.660353  	94.776400 
2036.097260  	94.683748 
2037.534167  	94.713940 
2038.971074  	94.542804 
2040.407981  	94.769923 
2041.844888  	94.701228 
2043.281795  	94.523540 
2044.718702  	94.787399 
2046.155609  	94.553312 
2047.592516  	94.303483 
2049.029423  	94.423029 
2050.466330  	94.348948 
2051.903237  	94.543694 
2053.340144  	94.787061 
2054.777051  	94.724903 
2056.213958  	94.663143 
2057.650865  	94.547703 
2059.087772  	94.531454 
2060.524679  	94.445220 
2061.961586  	94.162093 
2063.398493  	94.355985 
2064.835401  	94.644192 
2066.272308  	94.520447 
2067.709215  	94.495298 
2069.146122  	94.474694 
2070.583029  	94.407211 
2072.019936  	94.418255 
2073.456843  	94.335565 
2074.893750  	94.312324 
2076.330657  	94.244186 
2077.767564  	94.133306 
2079.204471  	94.253095 
2080.641378  	94.319117 
2082.078285  	94.354651 
2083.515192  	94.428555 
2084.952099  	94.297919 
2086.389006  	94.238671 
2087.825913  	94.263533 
2089.262820  	94.241008 
2090.699727  	94.344778 
2092.136634  	94.352625 
2093.573541  	94.309568 
2095.010448  	94.337799 
2096.447355  	94.248094 
2097.884262  	94.314210 
2099.321169  	94.428754 
2100.758076  	94.354333 
2102.194983  	94.399713 
2103.631890  	94.385811 
2105.068797  	94.283167 
2106.505704  	94.320037 
2107.942611  	94.269659 
2109.379518  	94.218341 
2110.816425  	94.221302 
2112.253332  	94.205405 
2113.690239  	94.323920 
2115.127147  	94.304204 
2116.564054  	94.216493 
2118.000961  	94.362750 
2119.437868  	94.394415 
2120.874775  	94.345774 
2122.311682  	94.411247 
2123.748589  	94.446592 
2125.185496  	94.497835 
2126.622403  	94.437214 
2128.059310  	94.416464 
2129.496217  	94.615134 
2130.933124  	94.550630 
2132.370031  	94.404370 
2133.806938  	94.437953 
2135.243845  	94.322207 
2136.680752  	94.298103 
2138.117659  	94.263333 
2139.554566  	94.133671 
2140.991473  	94.349085 
2142.428380  	94.427398 
2143.865287  	94.276178 
2145.302194  	94.271146 
2146.739101  	94.171422 
2148.176008  	94.177686 
2149.612915  	94.236768 
2151.049822  	94.259800 
2152.486729  	94.588228 
2153.923636  	94.679165 
2155.360543  	94.734800 
2156.797450  	95.193522 
2158.234357  	95.159294 
2159.671264  	94.653686 
2161.108171  	94.172944 
2162.545078  	94.090661 
2163.981985  	94.484757 
2165.418893  	94.443562 
2166.855800  	94.314860 
2168.292707  	94.523958 
2169.729614  	94.509168 
2171.166521  	94.665188 
2172.603428  	94.829599 
2174.040335  	94.558655 
2175.477242  	94.370890 
2176.914149  	94.195031 
2178.351056  	94.192089 
2179.787963  	94.507267 
2181.224870  	94.469333 
2182.661777  	94.449222 
2184.098684  	94.531483 
2185.535591  	94.314403 
2186.972498  	94.229556 
2188.409405  	94.179300 
2189.846312  	94.192513 
2191.283219  	94.411718 
2192.720126  	94.374970 
2194.157033  	94.461908 
2195.593940  	94.616436 
2197.030847  	94.334499 
2198.467754  	94.243350 
2199.904661  	94.313482 
2201.341568  	94.318550 
2202.778475  	94.578013 
2204.215382  	94.592445 
2205.652289  	94.448726 
2207.089196  	94.584104 
2208.526103  	94.564023 
2209.963010  	94.452301 
2211.399917  	94.442063 
2212.836824  	94.380420 
2214.273732  	94.367951 
2215.710639  	94.356534 
2217.147546  	94.389397 
2218.584453  	94.502835 
2220.021360  	94.560273 
2221.458267  	94.661328 
2222.895174  	94.662151 
2224.332081  	94.594915 
2225.768988  	94.650539 
2227.205895  	94.601417 
2228.642802  	94.636211 
2230.079709  	94.818366 
2231.516616  	94.778189 
2232.953523  	94.732562 
2234.390430  	94.739550 
2235.827337  	94.726892 
2237.264244  	94.856555 
2238.701151  	94.822000 
2240.138058  	94.665469 
2241.574965  	94.712702 
2243.011872  	94.730776 
2244.448779  	94.683211 
2245.885686  	94.714354 
2247.322593  	94.837212 
2248.759500  	94.958918 
2250.196407  	94.801688 
2251.633314  	94.628803 
2253.070221  	94.693883 
2254.507128  	94.687077 
2255.944035  	94.719847 
2257.380942  	94.876328 
2258.817849  	94.893824 
2260.254756  	94.893692 
2261.691663  	94.956683 
2263.128570  	95.029928 
2264.565478  	95.071601 
2266.002385  	95.010779 
2267.439292  	95.037271 
2268.876199  	95.106119 
2270.313106  	95.060715 
2271.750013  	95.109816 
2273.186920  	95.175865 
2274.623827  	95.125125 
2276.060734  	95.147238 
2277.497641  	95.230736 
2278.934548  	95.273291 
2280.371455  	95.252508 
2281.808362  	95.215803 
2283.245269  	95.252564 
2284.682176  	95.244169 
2286.119083  	95.170073 
2287.555990  	95.192177 
2288.992897  	95.280806 
2290.429804  	95.328638 
2291.866711  	95.308379 
2293.303618  	95.293351 
2294.740525  	95.294268 
2296.177432  	95.317648 
2297.614339  	95.342940 
2299.051246  	95.273381 
2300.488153  	95.337096 
2301.925060  	95.358732 
2303.361967  	95.385769 
2304.798874  	95.367594 
2306.235781  	95.392642 
2307.672688  	95.345373 
2309.109595  	95.294525 
2310.546502  	95.384320 
2311.983409  	95.422821 
2313.420317  	95.420153 
2314.857224  	95.445040 
2316.294131  	95.412974 
2317.731038  	95.431340 
2319.167945  	95.465873 
2320.604852  	95.424526 
2322.041759  	95.379256 
2323.478666  	95.309815 
2324.915573  	95.353740 
2326.352480  	95.564432 
2327.789387  	95.687046 
2329.226294  	95.712433 
2330.663201  	95.707010 
2332.100108  	95.628503 
2333.537015  	95.644477 
2334.973922  	95.681524 
2336.410829  	95.665881 
2337.847736  	95.696410 
2339.284643  	95.673914 
2340.721550  	95.626170 
2342.158457  	95.658780 
2343.595364  	95.668686 
2345.032271  	95.666736 
2346.469178  	95.663937 
2347.906085  	95.647903 
2349.342992  	95.678780 
2350.779899  	95.689312 
2352.216806  	95.636998 
2353.653713  	95.583237 
2355.090620  	95.595195 
2356.527527  	95.643415 
2357.964434  	95.642768 
2359.401341  	95.667201 
2360.838248  	95.836947 
2362.275155  	95.904768 
2363.712063  	95.888813 
2365.148970  	95.942997 
2366.585877  	95.979006 
2368.022784  	95.987551 
2369.459691  	96.040806 
2370.896598  	96.101581 
2372.333505  	96.174833 
2373.770412  	96.215833 
2375.207319  	96.240549 
2376.644226  	96.256216 
2378.081133  	96.213413 
2379.518040  	96.175518 
2380.954947  	96.178897 
2382.391854  	96.184824 
2383.828761  	96.179345 
2385.265668  	96.159407 
2386.702575  	96.163164 
2388.139482  	96.233502 
2389.576389  	96.242425 
2391.013296  	96.178483 
2392.450203  	96.144234 
2393.887110  	96.113004 
2395.324017  	96.061063 
2396.760924  	96.017090 
2398.197831  	96.012779 
2399.634738  	96.018674 
2401.071645  	95.989798 
2402.508552  	95.991274 
2403.945459  	96.017784 
2405.382366  	96.014480 
2406.819273  	96.021170 
2408.256180  	96.015204 
2409.693087  	95.994033 
2411.129994  	95.990605 
2412.566901  	95.970839 
2414.003809  	95.972739 
2415.440716  	95.995849 
2416.877623  	95.993149 
2418.314530  	96.018740 
2419.751437  	96.066631 
2421.188344  	96.107872 
2422.625251  	96.137336 
2424.062158  	96.136247 
2425.499065  	96.168807 
2426.935972  	96.202414 
2428.372879  	96.168771 
2429.809786  	96.144726 
2431.246693  	96.142186 
2432.683600  	96.175033 
2434.120507  	96.250379 
2435.557414  	96.264210 
2436.994321  	96.250672 
2438.431228  	96.242319 
2439.868135  	96.203020 
2441.305042  	96.209461 
2442.741949  	96.237604 
2444.178856  	96.242756 
2445.615763  	96.273035 
2447.052670  	96.300405 
2448.489577  	96.330201 
2449.926484  	96.338306 
2451.363391  	96.297817 
2452.800298  	96.304877 
2454.237205  	96.304529 
2455.674112  	96.257317 
2457.111019  	96.274574 
2458.547926  	96.299950 
2459.984833  	96.285018 
2461.421740  	96.275897 
2462.858648  	96.265403 
2464.295555  	96.290255 
2465.732462  	96.323427 
2467.169369  	96.305674 
2468.606276  	96.277510 
2470.043183  	96.262257 
2471.480090  	96.277328 
2472.916997  	96.289311 
2474.353904  	96.277116 
2475.790811  	96.309929 
2477.227718  	96.329059 
2478.664625  	96.313682 
2480.101532  	96.325035 
2481.538439  	96.291321 
2482.975346  	96.269243 
2484.412253  	96.304513 
2485.849160  	96.281686 
2487.286067  	96.279469 
2488.722974  	96.322171 
2490.159881  	96.290270 
2491.596788  	96.249142 
2493.033695  	96.268429 
2494.470602  	96.332392 
2495.907509  	96.375735 
2497.344416  	96.339443 
2498.781323  	96.335274 
2500.218230  	96.401943 
2501.655137  	96.456286 
2503.092044  	96.463380 
2504.528951  	96.401151 
2505.965858  	96.371083 
2507.402765  	96.384717 
2508.839672  	96.332292 
2510.276579  	96.324500 
2511.713486  	96.362748 
2513.150394  	96.336181 
2514.587301  	96.340929 
2516.024208  	96.376581 
2517.461115  	96.398626 
2518.898022  	96.403695 
2520.334929  	96.357232 
2521.771836  	96.386301 
2523.208743  	96.450358 
2524.645650  	96.409067 
2526.082557  	96.407620 
2527.519464  	96.435274 
2528.956371  	96.418770 
2530.393278  	96.440542 
2531.830185  	96.427556 
2533.267092  	96.404866 
2534.703999  	96.420670 
2536.140906  	96.385296 
2537.577813  	96.403319 
2539.014720  	96.463676 
2540.451627  	96.448538 
2541.888534  	96.452752 
2543.325441  	96.448561 
2544.762348  	96.412816 
2546.199255  	96.422158 
2547.636162  	96.411490 
2549.073069  	96.398520 
2550.509976  	96.401441 
2551.946883  	96.378371 
2553.383790  	96.399316 
2554.820697  	96.415408 
2556.257604  	96.380423 
2557.694511  	96.366113 
2559.131418  	96.344118 
2560.568325  	96.330395 
2562.005232  	96.355684 
2563.442140  	96.387531 
2564.879047  	96.426892 
2566.315954  	96.411292 
2567.752861  	96.363266 
2569.189768  	96.361010 
2570.626675  	96.346777 
2572.063582  	96.341427 
2573.500489  	96.355538 
2574.937396  	96.332331 
2576.374303  	96.336730 
2577.811210  	96.353644 
2579.248117  	96.333133 
2580.685024  	96.320525 
2582.121931  	96.317858 
2583.558838  	96.335077 
2584.995745  	96.328258 
2586.432652  	96.283700 
2587.869559  	96.310614 
2589.306466  	96.337909 
2590.743373  	96.310562 
2592.180280  	96.319535 
2593.617187  	96.304060 
2595.054094  	96.274446 
2596.491001  	96.286592 
2597.927908  	96.260823 
2599.364815  	96.251499 
2600.801722  	96.275817 
2602.238629  	96.247717 
2603.675536  	96.243332 
2605.112443  	96.278965 
2606.549350  	96.273403 
2607.986257  	96.236487 
2609.423164  	96.205898 
2610.860071  	96.209374 
2612.296979  	96.208873 
2613.733886  	96.189569 
2615.170793  	96.213252 
2616.607700  	96.229052 
2618.044607  	96.205613 
2619.481514  	96.210532 
2620.918421  	96.222592 
2622.355328  	96.218692 
2623.792235  	96.219636 
2625.229142  	96.222511 
2626.666049  	96.227248 
2628.102956  	96.229170 
2629.539863  	96.243023 
2630.976770  	96.248961 
2632.413677  	96.220057 
2633.850584  	96.226345 
2635.287491  	96.247420 
2636.724398  	96.211809 
2638.161305  	96.197579 
2639.598212  	96.228741 
2641.035119  	96.234762 
2642.472026  	96.219854 
2643.908933  	96.217646 
2645.345840  	96.231105 
2646.782747  	96.229851 
2648.219654  	96.220873 
2649.656561  	96.231999 
2651.093468  	96.224634 
2652.530375  	96.223838 
2653.967282  	96.261507 
2655.404189  	96.256993 
2656.841096  	96.223604 
2658.278003  	96.223138 
2659.714910  	96.227357 
2661.151817  	96.235829 
2662.588725  	96.246951 
2664.025632  	96.243710 
2665.462539  	96.242944 
2666.899446  	96.239509 
2668.336353  	96.232148 
2669.773260  	96.219237 
2671.210167  	96.209482 
2672.647074  	96.225640 
2674.083981  	96.210473 
2675.520888  	96.174528 
2676.957795  	96.196178 
2678.394702  	96.206660 
2679.831609  	96.181115 
2681.268516  	96.177536 
2682.705423  	96.160044 
2684.142330  	96.143897 
2685.579237  	96.156148 
2687.016144  	96.152695 
2688.453051  	96.152327 
2689.889958  	96.156814 
2691.326865  	96.145311 
2692.763772  	96.147341 
2694.200679  	96.152736 
2695.637586  	96.151880 
2697.074493  	96.148376 
2698.511400  	96.126717 
2699.948307  	96.109574 
2701.385214  	96.100589 
2702.822121  	96.089746 
2704.259028  	96.091788 
2705.695935  	96.089915 
2707.132842  	96.083992 
2708.569749  	96.079088 
2710.006656  	96.061978 
2711.443564  	96.061547 
2712.880471  	96.068953 
2714.317378  	96.047395 
2715.754285  	96.019940 
2717.191192  	96.002669 
2718.628099  	95.992841 
2720.065006  	95.983323 
2721.501913  	95.966660 
2722.938820  	95.962317 
2724.375727  	95.958612 
2725.812634  	95.939631 
2727.249541  	95.923180 
2728.686448  	95.900407 
2730.123355  	95.875637 
2731.560262  	95.867884 
2732.997169  	95.865202 
2734.434076  	95.854648 
2735.870983  	95.829502 
2737.307890  	95.818732 
2738.744797  	95.833301 
2740.181704  	95.822541 
2741.618611  	95.799734 
2743.055518  	95.788903 
2744.492425  	95.765433 
2745.929332  	95.752793 
2747.366239  	95.745756 
2748.803146  	95.721404 
2750.240053  	95.705728 
2751.676960  	95.680936 
2753.113867  	95.654317 
2754.550774  	95.659432 
2755.987681  	95.658819 
2757.424588  	95.647021 
2758.861495  	95.630500 
2760.298402  	95.593975 
2761.735310  	95.574853 
2763.172217  	95.575984 
2764.609124  	95.571009 
2766.046031  	95.558739 
2767.482938  	95.519679 
2768.919845  	95.480203 
2770.356752  	95.477181 
2771.793659  	95.481998 
2773.230566  	95.477489 
2774.667473  	95.460215 
2776.104380  	95.428996 
2777.541287  	95.393846 
2778.978194  	95.360733 
2780.415101  	95.355267 
2781.852008  	95.364555 
2783.288915  	95.342164 
2784.725822  	95.301219 
2786.162729  	95.271767 
2787.599636  	95.260501 
2789.036543  	95.240835 
2790.473450  	95.202067 
2791.910357  	95.196285 
2793.347264  	95.193979 
2794.784171  	95.155325 
2796.221078  	95.150429 
2797.657985  	95.151659 
2799.094892  	95.108783 
2800.531799  	95.078539 
2801.968706  	95.053151 
2803.405613  	95.029627 
2804.842520  	95.023134 
2806.279427  	94.984411 
2807.716334  	94.952246 
2809.153241  	94.953348 
2810.590148  	94.927139 
2812.027056  	94.902007 
2813.463963  	94.894859 
2814.900870  	94.868176 
2816.337777  	94.837886 
2817.774684  	94.810785 
2819.211591  	94.785431 
2820.648498  	94.764957 
2822.085405  	94.745129 
2823.522312  	94.731627 
2824.959219  	94.691973 
2826.396126  	94.634502 
2827.833033  	94.612395 
2829.269940  	94.590578 
2830.706847  	94.546238 
2832.143754  	94.510316 
2833.580661  	94.484241 
2835.017568  	94.465522 
2836.454475  	94.428818 
2837.891382  	94.382245 
2839.328289  	94.365429 
2840.765196  	94.327499 
2842.202103  	94.269136 
2843.639010  	94.257455 
2845.075917  	94.247305 
2846.512824  	94.210474 
2847.949731  	94.187570 
2849.386638  	94.162782 
2850.823545  	94.119492 
2852.260452  	94.079911 
2853.697359  	94.051041 
2855.134266  	94.002723 
2856.571173  	93.932502 
2858.008080  	93.900674 
2859.444987  	93.902364 
2860.881895  	93.884591 
2862.318802  	93.851866 
2863.755709  	93.803424 
2865.192616  	93.756374 
2866.629523  	93.739113 
2868.066430  	93.711480 
2869.503337  	93.657369 
2870.940244  	93.595305 
2872.377151  	93.537436 
2873.814058  	93.510680 
2875.250965  	93.487068 
2876.687872  	93.445942 
2878.124779  	93.419571 
2879.561686  	93.377572 
2880.998593  	93.308133 
2882.435500  	93.255356 
2883.872407  	93.212468 
2885.309314  	93.174339 
2886.746221  	93.139216 
2888.183128  	93.079047 
2889.620035  	93.010313 
2891.056942  	92.952617 
2892.493849  	92.890402 
2893.930756  	92.830970 
2895.367663  	92.785275 
2896.804570  	92.727218 
2898.241477  	92.652029 
2899.678384  	92.598046 
2901.115291  	92.543785 
2902.552198  	92.455150 
2903.989105  	92.385147 
2905.426012  	92.326987 
2906.862919  	92.235386 
2908.299826  	92.171482 
2909.736733  	92.151427 
2911.173641  	92.117189 
2912.610548  	92.054918 
2914.047455  	91.985219 
2915.484362  	91.960710 
2916.921269  	91.938804 
2918.358176  	91.824455 
2919.795083  	91.703029 
2921.231990  	91.627652 
2922.668897  	91.526807 
2924.105804  	91.438709 
2925.542711  	91.376680 
2926.979618  	91.289629 
2928.416525  	91.213899 
2929.853432  	91.149748 
2931.290339  	91.064849 
2932.727246  	90.975541 
2934.164153  	90.886754 
2935.601060  	90.818969 
2937.037967  	90.773676 
2938.474874  	90.690479 
2939.911781  	90.565722 
2941.348688  	90.473691 
2942.785595  	90.421924 
2944.222502  	90.330783 
2945.659409  	90.211997 
2947.096316  	90.130293 
2948.533223  	90.030209 
2949.970130  	89.897469 
2951.407037  	89.799273 
2952.843944  	89.709162 
2954.280851  	89.601884 
2955.717758  	89.492763 
2957.154665  	89.389796 
2958.591572  	89.313060 
2960.028479  	89.219424 
2961.465387  	89.101600 
2962.902294  	89.005594 
2964.339201  	88.889054 
2965.776108  	88.770713 
2967.213015  	88.685649 
2968.649922  	88.580704 
2970.086829  	88.492566 
2971.523736  	88.415304 
2972.960643  	88.279237 
2974.397550  	88.141941 
2975.834457  	88.022566 
2977.271364  	87.905919 
2978.708271  	87.810611 
2980.145178  	87.698161 
2981.582085  	87.590805 
2983.018992  	87.490913 
2984.455899  	87.348974 
2985.892806  	87.222369 
2987.329713  	87.101092 
2988.766620  	86.958438 
2990.203527  	86.842260 
2991.640434  	86.688333 
2993.077341  	86.520685 
2994.514248  	86.418835 
2995.951155  	86.284842 
2997.388062  	86.113584 
2998.824969  	85.959146 
3000.261876  	85.801828 
3001.698783  	85.687543 
3003.135690  	85.573931 
3004.572597  	85.394084 
3006.009504  	85.223463 
3007.446411  	85.086723 
3008.883318  	84.946178 
3010.320226  	84.776410 
3011.757133  	84.601983 
3013.194040  	84.480561 
3014.630947  	84.351458 
3016.067854  	84.198139 
3017.504761  	84.073328 
3018.941668  	83.917467 
3020.378575  	83.744248 
3021.815482  	83.595113 
3023.252389  	83.435813 
3024.689296  	83.299728 
3026.126203  	83.160212 
3027.563110  	82.988428 
3029.000017  	82.839590 
3030.436924  	82.692568 
3031.873831  	82.565974 
3033.310738  	82.445791 
3034.747645  	82.255105 
3036.184552  	82.077290 
3037.621459  	81.920761 
3039.058366  	81.741496 
3040.495273  	81.605859 
3041.932180  	81.444530 
3043.369087  	81.240484 
3044.805994  	81.082336 
3046.242901  	80.917955 
3047.679808  	80.750036 
3049.116715  	80.587828 
3050.553622  	80.397466 
3051.990529  	80.236220 
3053.427436  	80.059970 
3054.864343  	79.858393 
3056.301250  	79.700382 
3057.738157  	79.510341 
3059.175064  	79.308911 
3060.611972  	79.148814 
3062.048879  	78.958390 
3063.485786  	78.766765 
3064.922693  	78.587179 
3066.359600  	78.395387 
3067.796507  	78.217283 
3069.233414  	78.019987 
3070.670321  	77.812428 
3072.107228  	77.593373 
3073.544135  	77.364082 
3074.981042  	77.200563 
3076.417949  	77.015940 
3077.854856  	76.779440 
3079.291763  	76.597954 
3080.728670  	76.389061 
3082.165577  	76.135622 
3083.602484  	75.911381 
3085.039391  	75.688959 
3086.476298  	75.498708 
3087.913205  	75.298583 
3089.350112  	75.046757 
3090.787019  	74.814795 
3092.223926  	74.580534 
3093.660833  	74.367129 
3095.097740  	74.181419 
3096.534647  	73.944888 
3097.971554  	73.705986 
3099.408461  	73.453425 
3100.845368  	73.197900 
3102.282275  	73.008657 
3103.719182  	72.775353 
3105.156089  	72.535325 
3106.592996  	72.335313 
3108.029903  	72.055819 
3109.466811  	71.801268 
3110.903718  	71.592440 
3112.340625  	71.327453 
3113.777532  	71.074456 
3115.214439  	70.806339 
3116.651346  	70.553221 
3118.088253  	70.345967 
3119.525160  	70.073065 
3120.962067  	69.835967 
3122.398974  	69.619578 
3123.835881  	69.333243 
3125.272788  	69.115188 
3126.709695  	68.872498 
3128.146602  	68.567116 
3129.583509  	68.322306 
3131.020416  	68.041028 
3132.457323  	67.789343 
3133.894230  	67.582174 
3135.331137  	67.277863 
3136.768044  	67.008266 
3138.204951  	66.764128 
3139.641858  	66.497669 
3141.078765  	66.294315 
3142.515672  	66.033805 
3143.952579  	65.755402 
3145.389486  	65.521420 
3146.826393  	65.238782 
3148.263300  	65.004213 
3149.700207  	64.765899 
3151.137114  	64.487949 
3152.574021  	64.285908 
3154.010928  	64.035776 
3155.447835  	63.776213 
3156.884742  	63.549385 
3158.321649  	63.240107 
3159.758557  	63.013155 
3161.195464  	62.827280 
3162.632371  	62.560213 
3164.069278  	62.339564 
3165.506185  	62.092748 
3166.943092  	61.856667 
3168.379999  	61.657451 
3169.816906  	61.358005 
3171.253813  	61.139828 
3172.690720  	60.968647 
3174.127627  	60.707462 
3175.564534  	60.493442 
3177.001441  	60.225086 
3178.438348  	59.971551 
3179.875255  	59.832959 
3181.312162  	59.594175 
3182.749069  	59.393511 
3184.185976  	59.243614 
3185.622883  	59.012670 
3187.059790  	58.863460 
3188.496697  	58.654271 
3189.933604  	58.397379 
3191.370511  	58.265599 
3192.807418  	58.057333 
3194.244325  	57.850966 
3195.681232  	57.676690 
3197.118139  	57.446252 
3198.555046  	57.350111 
3199.991953  	57.183195 
3201.428860  	56.928618 
3202.865767  	56.829180 
3204.302674  	56.644853 
3205.739581  	56.468291 
3207.176488  	56.378653 
3208.613395  	56.146334 
3210.050303  	56.019049 
3211.487210  	55.966136 
3212.924117  	55.812595 
3214.361024  	55.712785 
3215.797931  	55.532069 
3217.234838  	55.370730 
3218.671745  	55.326348 
3220.108652  	55.164878 
3221.545559  	55.044929 
3222.982466  	54.934055 
3224.419373  	54.735268 
3225.856280  	54.672318 
3227.293187  	54.590736 
3228.730094  	54.492067 
3230.167001  	54.472621 
3231.603908  	54.356325 
3233.040815  	54.298982 
3234.477722  	54.243237 
3235.914629  	54.109380 
3237.351536  	54.110950 
3238.788443  	54.002332 
3240.225350  	53.834206 
3241.662257  	53.830644 
3243.099164  	53.737498 
3244.536071  	53.681098 
3245.972978  	53.671446 
3247.409885  	53.538476 
3248.846792  	53.533278 
3250.283699  	53.517750 
3251.720606  	53.428939 
3253.157513  	53.444548 
3254.594420  	53.361499 
3256.031327  	53.297549 
3257.468234  	53.306771 
3258.905142  	53.225876 
3260.342049  	53.261467 
3261.778956  	53.272870 
3263.215863  	53.174690 
3264.652770  	53.175139 
3266.089677  	53.116609 
3267.526584  	53.076900 
3268.963491  	53.081388 
3270.400398  	52.969102 
3271.837305  	52.983707 
3273.274212  	53.033768 
3274.711119  	52.997063 
3276.148026  	53.040222 
3277.584933  	52.984542 
3279.021840  	52.913230 
3280.458747  	52.919886 
3281.895654  	52.835772 
3283.332561  	52.841262 
3284.769468  	52.858136 
3286.206375  	52.790761 
3287.643282  	52.824081 
3289.080189  	52.781875 
3290.517096  	52.721579 
3291.954003  	52.769451 
3293.390910  	52.750339 
3294.827817  	52.758821 
3296.264724  	52.740068 
3297.701631  	52.698606 
3299.138538  	52.786468 
3300.575445  	52.753113 
3302.012352  	52.694913 
3303.449259  	52.722924 
3304.886166  	52.631842 
3306.323073  	52.628021 
3307.759980  	52.626622 
3309.196888  	52.518724 
3310.633795  	52.581997 
3312.070702  	52.585980 
3313.507609  	52.521526 
3314.944516  	52.565005 
3316.381423  	52.501087 
3317.818330  	52.503639 
3319.255237  	52.560494 
3320.692144  	52.481160 
3322.129051  	52.490560 
3323.565958  	52.476906 
3325.002865  	52.449239 
3326.439772  	52.543566 
3327.876679  	52.506150 
3329.313586  	52.470451 
3330.750493  	52.479234 
3332.187400  	52.415941 
3333.624307  	52.484321 
3335.061214  	52.479330 
3336.498121  	52.393768 
3337.935028  	52.443691 
3339.371935  	52.387354 
3340.808842  	52.375407 
3342.245749  	52.442085 
3343.682656  	52.371749 
3345.119563  	52.436925 
3346.556470  	52.503291 
3347.993377  	52.432674 
3349.430284  	52.461079 
3350.867191  	52.446769 
3352.304098  	52.473431 
3353.741005  	52.557669 
3355.177912  	52.510800 
3356.614819  	52.577159 
3358.051726  	52.620430 
3359.488634  	52.559889 
3360.925541  	52.669360 
3362.362448  	52.713476 
3363.799355  	52.735898 
3365.236262  	52.844922 
3366.673169  	52.820073 
3368.110076  	52.873301 
3369.546983  	52.937505 
3370.983890  	52.920230 
3372.420797  	53.056327 
3373.857704  	53.086049 
3375.294611  	53.083657 
3376.731518  	53.242822 
3378.168425  	53.259239 
3379.605332  	53.303601 
3381.042239  	53.424770 
3382.479146  	53.445434 
3383.916053  	53.572009 
3385.352960  	53.680758 
3386.789867  	53.749343 
3388.226774  	53.904043 
3389.663681  	53.932371 
3391.100588  	53.962854 
3392.537495  	54.074352 
3393.974402  	54.170003 
3395.411309  	54.322614 
3396.848216  	54.394797 
3398.285123  	54.512437 
3399.722030  	54.722900 
3401.158937  	54.761473 
3402.595844  	54.880910 
3404.032751  	55.062450 
3405.469658  	55.124128 
3406.906565  	55.311098 
3408.343473  	55.446216 
3409.780380  	55.546121 
3411.217287  	55.799269 
3412.654194  	55.908845 
3414.091101  	56.018272 
3415.528008  	56.208005 
3416.964915  	56.260586 
3418.401822  	56.389833 
3419.838729  	56.549918 
3421.275636  	56.701695 
3422.712543  	56.969814 
3424.149450  	57.128438 
3425.586357  	57.281577 
3427.023264  	57.468904 
3428.460171  	57.559761 
3429.897078  	57.758285 
3431.333985  	57.934693 
3432.770892  	58.050107 
3434.207799  	58.251642 
3435.644706  	58.346879 
3437.081613  	58.514556 
3438.518520  	58.779295 
3439.955427  	58.905089 
3441.392334  	59.146306 
3442.829241  	59.417852 
3444.266148  	59.550911 
3445.703055  	59.720663 
3447.139962  	59.890378 
3448.576869  	60.176774 
3450.013776  	60.428777 
3451.450683  	60.482205 
3452.887590  	60.707010 
3454.324497  	60.949852 
3455.761404  	61.048517 
3457.198311  	61.250472 
3458.635219  	61.388437 
3460.072126  	61.573255 
3461.509033  	61.875427 
3462.945940  	62.014923 
3464.382847  	62.213380 
3465.819754  	62.438737 
3467.256661  	62.569660 
3468.693568  	62.800517 
3470.130475  	62.956177 
3471.567382  	63.152375 
3473.004289  	63.469346 
3474.441196  	63.611509 
3475.878103  	63.811325 
3477.315010  	64.042561 
3478.751917  	64.140642 
3480.188824  	64.381135 
3481.625731  	64.619110 
3483.062638  	64.826222 
3484.499545  	65.068436 
3485.936452  	65.132946 
3487.373359  	65.333007 
3488.810266  	65.661768 
3490.247173  	65.824002 
3491.684080  	66.060257 
3493.120987  	66.232220 
3494.557894  	66.332520 
3495.994801  	66.623486 
3497.431708  	66.830811 
3498.868615  	66.994571 
3500.305522  	67.217945 
3501.742429  	67.340499 
3503.179336  	67.580425 
3504.616243  	67.899138 
3506.053150  	68.124320 
3507.490058  	68.308923 
3508.926965  	68.396163 
3510.363872  	68.619184 
3511.800779  	68.940404 
3513.237686  	69.100126 
3514.674593  	69.318768 
3516.111500  	69.505209 
3517.548407  	69.634474 
3518.985314  	69.923227 
3520.422221  	70.088636 
3521.859128  	70.196381 
3523.296035  	70.517903 
3524.732942  	70.818093 
3526.169849  	71.028694 
3527.606756  	71.215793 
3529.043663  	71.419160 
3530.480570  	71.663277 
3531.917477  	71.806384 
3533.354384  	71.984149 
3534.791291  	72.195817 
3536.228198  	72.329062 
3537.665105  	72.624469 
3539.102012  	72.936698 
3540.538919  	73.105917 
3541.975826  	73.315171 
3543.412733  	73.501782 
3544.849640  	73.716258 
3546.286547  	73.990344 
3547.723454  	74.194489 
3549.160361  	74.428843 
3550.597268  	74.585868 
3552.034175  	74.763733 
3553.471082  	75.123201 
3554.907989  	75.275342 
3556.344896  	75.378736 
3557.781804  	75.676874 
3559.218711  	75.873375 
3560.655618  	76.024940 
3562.092525  	76.208710 
3563.529432  	76.353429 
3564.966339  	76.607397 
3566.403246  	76.894702 
3567.840153  	77.224204 
3569.277060  	77.533298 
3570.713967  	77.645980 
3572.150874  	77.861493 
3573.587781  	78.108648 
3575.024688  	78.228776 
3576.461595  	78.387387 
3577.898502  	78.511510 
3579.335409  	78.680713 
3580.772316  	78.970130 
3582.209223  	79.111019 
3583.646130  	79.245663 
3585.083037  	79.456084 
3586.519944  	79.668095 
3587.956851  	80.091825 
3589.393758  	80.354555 
3590.830665  	80.353948 
3592.267572  	80.506374 
3593.704479  	80.693452 
3595.141386  	80.922507 
3596.578293  	81.198191 
3598.015200  	81.311158 
3599.452107  	81.433301 
3600.889014  	81.621503 
3602.325921  	81.823000 
3603.762828  	82.063418 
3605.199735  	82.242635 
3606.636642  	82.444360 
3608.073550  	82.662914 
3609.510457  	82.739355 
3610.947364  	82.938610 
3612.384271  	83.295151 
3613.821178  	83.630928 
3615.258085  	83.823288 
3616.694992  	83.945963 
3618.131899  	84.184078 
3619.568806  	84.411250 
3621.005713  	84.517762 
3622.442620  	84.665553 
3623.879527  	84.801791 
3625.316434  	85.052968 
3626.753341  	85.394970 
3628.190248  	85.583494 
3629.627155  	85.839456 
3631.064062  	86.119702 
3632.500969  	86.241964 
3633.937876  	86.631133 
3635.374783  	86.896741 
3636.811690  	86.886608 
3638.248597  	87.028376 
3639.685504  	87.100072 
3641.122411  	87.143069 
3642.559318  	87.430424 
3643.996225  	87.758538 
3645.433132  	88.089218 
3646.870039  	88.512427 
3648.306946  	88.863927 
3649.743853  	89.030987 
3651.180760  	89.084941 
3652.617667  	89.330504 
3654.054574  	89.648812 
3655.491481  	89.909984 
3656.928389  	90.066309 
3658.365296  	90.139461 
3659.802203  	90.338714 
3661.239110  	90.621664 
3662.676017  	90.799543 
3664.112924  	91.080071 
3665.549831  	91.326266 
3666.986738  	91.469615 
3668.423645  	91.605926 
3669.860552  	91.759752 
3671.297459  	91.936387 
3672.734366  	92.263012 
3674.171273  	92.563763 
3675.608180  	92.791391 
3677.045087  	92.837914 
3678.481994  	92.930166 
3679.918901  	93.160831 
3681.355808  	93.311313 
3682.792715  	93.363987 
3684.229622  	93.548178 
3685.666529  	93.734877 
3687.103436  	93.830911 
3688.540343  	93.929112 
3689.977250  	94.020251 
3691.414157  	94.142018 
3692.851064  	94.297255 
3694.287971  	94.451338 
3695.724878  	94.617554 
3697.161785  	94.710637 
3698.598692  	94.752112 
3700.035599  	94.794728 
3701.472506  	94.820244 
3702.909413  	94.860684 
3704.346320  	94.971824 
3705.783227  	95.109552 
3707.220135  	95.235425 
3708.657042  	95.324978 
3710.093949  	95.420491 
3711.530856  	95.467954 
3712.967763  	95.375724 
3714.404670  	95.324929 
3715.841577  	95.363199 
3717.278484  	95.436416 
3718.715391  	95.633932 
3720.152298  	95.823971 
3721.589205  	95.888713 
3723.026112  	95.753564 
3724.463019  	95.469055 
3725.899926  	95.456159 
3727.336833  	95.646953 
3728.773740  	95.766381 
3730.210647  	95.923480 
3731.647554  	95.953041 
3733.084461  	95.651269 
3734.521368  	95.633957 
3735.958275  	95.778966 
3737.395182  	95.719567 
3738.832089  	95.746048 
3740.268996  	95.836264 
3741.705903  	96.055063 
3743.142810  	96.406316 
3744.579717  	96.494296 
3746.016624  	96.002921 
3747.453531  	96.114495 
3748.890438  	96.428132 
3750.327345  	96.459059 
3751.764252  	96.328757 
3753.201159  	96.435818 
3754.638066  	96.490588 
3756.074973  	96.523301 
3757.511881  	96.608748 
3758.948788  	96.597883 
3760.385695  	96.515886 
3761.822602  	96.446066 
3763.259509  	96.492057 
3764.696416  	96.579461 
3766.133323  	96.516079 
3767.570230  	96.534970 
3769.007137  	96.645273 
3770.444044  	96.475157 
3771.880951  	96.258868 
3773.317858  	96.263188 
3774.754765  	96.305066 
3776.191672  	96.358740 
3777.628579  	96.443231 
3779.065486  	96.473164 
3780.502393  	96.374956 
3781.939300  	96.215361 
3783.376207  	96.217126 
3784.813114  	96.303990 
3786.250021  	96.271009 
3787.686928  	96.161015 
3789.123835  	96.077460 
3790.560742  	96.078214 
3791.997649  	96.156814 
3793.434556  	96.224124 
3794.871463  	96.281944 
3796.308370  	96.247307 
3797.745277  	96.138330 
3799.182184  	96.244267 
3800.619091  	96.422652 
3802.055998  	96.313185 
3803.492905  	96.139195 
3804.929812  	96.263748 
3806.366720  	96.404687 
3807.803627  	96.333878 
3809.240534  	96.244582 
3810.677441  	96.343166 
3812.114348  	96.429137 
3813.551255  	96.460915 
3814.988162  	96.580653 
3816.425069  	96.553907 
3817.861976  	96.301857 
3819.298883  	96.350891 
3820.735790  	96.533779 
3822.172697  	96.555413 
3823.609604  	96.513290 
3825.046511  	96.573283 
3826.483418  	96.599809 
3827.920325  	96.504698 
3829.357232  	96.532770 
3830.794139  	96.660601 
3832.231046  	96.600924 
3833.667953  	96.435644 
3835.104860  	96.431365 
3836.541767  	96.560311 
3837.978674  	96.689685 
3839.415581  	96.691703 
3840.852488  	96.620408 
3842.289395  	96.577426 
3843.726302  	96.551776 
3845.163209  	96.526724 
3846.600116  	96.511111 
3848.037023  	96.555300 
3849.473930  	96.675511 
3850.910837  	96.722957 
3852.347744  	96.770082 
3853.784651  	96.691188 
3855.221558  	96.347102 
3856.658466  	96.398742 
3858.095373  	96.556035 
3859.532280  	96.611357 
3860.969187  	96.673061 
3862.406094  	96.714513 
3863.843001  	96.667450 
3865.279908  	96.528201 
3866.716815  	96.407273 
3868.153722  	96.574603 
3869.590629  	96.829550 
3871.027536  	96.712828 
3872.464443  	96.636473 
3873.901350  	96.695792 
3875.338257  	96.540734 
3876.775164  	96.451391 
3878.212071  	96.584963 
3879.648978  	96.686336 
3881.085885  	96.528448 
3882.522792  	96.361717 
3883.959699  	96.525103 
3885.396606  	96.676882 
3886.833513  	96.525400 
3888.270420  	96.563041 
3889.707327  	96.724527 
3891.144234  	96.648674 
3892.581141  	96.355524 
3894.018048  	96.272751 
3895.454955  	96.362377 
3896.891862  	96.449879 
3898.328769  	96.547281 
3899.765676  	96.682624 
3901.202583  	96.681056 
3902.639490  	96.626181 
3904.076397  	96.685605 
3905.513305  	96.562940 
3906.950212  	96.430963 
3908.387119  	96.501112 
3909.824026  	96.552993 
3911.260933  	96.520747 
3912.697840  	96.423846 
3914.134747  	96.373476 
3915.571654  	96.495195 
3917.008561  	96.572643 
3918.445468  	96.497946 
3919.882375  	96.506697 
3921.319282  	96.505780 
3922.756189  	96.488221 
3924.193096  	96.518470 
3925.630003  	96.481061 
3927.066910  	96.455353 
3928.503817  	96.465832 
3929.940724  	96.438491 
3931.377631  	96.438963 
3932.814538  	96.430472 
3934.251445  	96.405633 
3935.688352  	96.471151 
3937.125259  	96.542279 
3938.562166  	96.527374 
3939.999073  	96.471508 
3941.435980  	96.432334 
3942.872887  	96.366016 
3944.309794  	96.288554 
3945.746701  	96.350911 
3947.183608  	96.501144 
3948.620515  	96.580199 
3950.057422  	96.546404 
3951.494329  	96.478323 
3952.931236  	96.451910 
3954.368143  	96.437319 
3955.805051  	96.404764 
3957.241958  	96.426603 
3958.678865  	96.450083 
3960.115772  	96.426428 
3961.552679  	96.440205 
3962.989586  	96.459418 
3964.426493  	96.486248 
3965.863400  	96.541833 
3967.300307  	96.524533 
3968.737214  	96.493382 
3970.174121  	96.473667 
3971.611028  	96.389219 
3973.047935  	96.364916 
3974.484842  	96.399346 
3975.921749  	96.382421 
3977.358656  	96.391862 
3978.795563  	96.436182 
3980.232470  	96.462613 
3981.669377  	96.472736 
3983.106284  	96.476174 
3984.543191  	96.502121 
3985.980098  	96.492469 
3987.417005  	96.436728 
3988.853912  	96.431760 
3990.290819  	96.450771 
3991.727726  	96.440289 
3993.164633  	96.414048 
3994.601540  	96.423322 
3996.038447  	96.490434 
3997.475354  	96.487585 
3998.912261  	96.428751 
4000.349168  	96.452827 